#---
#spectra_types: R
#resources:
#  fields:
#  - name: wavelengths
#    type: number
#  - name: accp|JR58|1993.001
#    type: number
#
#---
wavelengths,accp|JR58|1993.001
400,0.1
402,0.096
404,0.092
406,0.09
408,0.087
410,0.085
412,0.084
414,0.082
416,0.08
418,0.079
420,0.078
422,0.077
424,0.076
426,0.075
428,0.074
430,0.074
432,0.074
434,0.073
436,0.073
438,0.073
440,0.073
442,0.073
444,0.073
446,0.073
448,0.073
450,0.073
452,0.073
454,0.073
456,0.073
458,0.073
460,0.073
462,0.073
464,0.073
466,0.074
468,0.074
470,0.074
472,0.075
474,0.075
476,0.076
478,0.077
480,0.077
482,0.078
484,0.079
486,0.079
488,0.08
490,0.081
492,0.082
494,0.082
496,0.083
498,0.084
500,0.084
502,0.085
504,0.086
506,0.087
508,0.088
510,0.09
512,0.091
514,0.093
516,0.094
518,0.096
520,0.098
522,0.1
524,0.102
526,0.104
528,0.105
530,0.107
532,0.108
534,0.109
536,0.111
538,0.112
540,0.112
542,0.113
544,0.114
546,0.114
548,0.114
550,0.115
552,0.114
554,0.114
556,0.113
558,0.112
560,0.111
562,0.11
564,0.108
566,0.106
568,0.105
570,0.102
572,0.101
574,0.098
576,0.097
578,0.095
580,0.093
582,0.092
584,0.09
586,0.089
588,0.088
590,0.087
592,0.086
594,0.086
596,0.085
598,0.084
600,0.083
602,0.082
604,0.081
606,0.08
608,0.079
610,0.078
612,0.077
614,0.076
616,0.075
618,0.075
620,0.074
622,0.073
624,0.073
626,0.073
628,0.073
630,0.073
632,0.072
634,0.072
636,0.072
638,0.072
640,0.071
642,0.07
644,0.07
646,0.069
648,0.068
650,0.068
652,0.067
654,0.066
656,0.066
658,0.065
660,0.064
662,0.064
664,0.064
666,0.063
668,0.063
670,0.063
672,0.063
674,0.063
676,0.063
678,0.063
680,0.064
682,0.064
684,0.066
686,0.068
688,0.072
690,0.077
692,0.084
694,0.093
696,0.103
698,0.116
700,0.13
702,0.145
704,0.162
706,0.18
708,0.199
710,0.219
712,0.238
714,0.258
716,0.278
718,0.297
720,0.315
722,0.333
724,0.35
726,0.366
728,0.38
730,0.393
732,0.405
734,0.415
736,0.424
738,0.432
740,0.439
742,0.445
744,0.45
746,0.454
748,0.458
750,0.461
752,0.464
754,0.466
756,0.468
758,0.47
760,0.471
762,0.472
764,0.474
766,0.475
768,0.475
770,0.476
772,0.477
774,0.477
776,0.478
778,0.478
780,0.478
782,0.478
784,0.479
786,0.479
788,0.479
790,0.479
792,0.48
794,0.48
796,0.48
798,0.481
800,0.481
802,0.481
804,0.481
806,0.481
808,0.482
810,0.482
812,0.482
814,0.482
816,0.482
818,0.482
820,0.482
822,0.483
824,0.483
826,0.483
828,0.483
830,0.483
832,0.483
834,0.483
836,0.483
838,0.483
840,0.483
842,0.483
844,0.483
846,0.483
848,0.484
850,0.484
852,0.484
854,0.484
856,0.484
858,0.484
860,0.484
862,0.484
864,0.484
866,0.484
868,0.484
870,0.484
872,0.485
874,0.485
876,0.485
878,0.485
880,0.485
882,0.485
884,0.486
886,0.486
888,0.486
890,0.486
892,0.486
894,0.486
896,0.487
898,0.487
900,0.487
902,0.487
904,0.487
906,0.487
908,0.487
910,0.488
912,0.488
914,0.488
916,0.488
918,0.488
920,0.488
922,0.488
924,0.488
926,0.488
928,0.488
930,0.487
932,0.487
934,0.487
936,0.486
938,0.486
940,0.486
942,0.485
944,0.484
946,0.484
948,0.483
950,0.482
952,0.481
954,0.48
956,0.479
958,0.478
960,0.477
962,0.476
964,0.476
966,0.475
968,0.475
970,0.474
972,0.474
974,0.474
976,0.474
978,0.474
980,0.474
982,0.474
984,0.474
986,0.474
988,0.474
990,0.474
992,0.475
994,0.475
996,0.475
998,0.476
1000,0.476
1002,0.476
1004,0.477
1006,0.477
1008,0.478
1010,0.478
1012,0.479
1014,0.479
1016,0.48
1018,0.48
1020,0.481
1022,0.481
1024,0.482
1026,0.482
1028,0.483
1030,0.483
1032,0.484
1034,0.484
1036,0.484
1038,0.485
1040,0.485
1042,0.486
1044,0.486
1046,0.486
1048,0.486
1050,0.487
1052,0.487
1054,0.487
1056,0.487
1058,0.488
1060,0.488
1062,0.488
1064,0.488
1066,0.488
1068,0.488
1070,0.488
1072,0.488
1074,0.488
1076,0.488
1078,0.488
1080,0.488
1082,0.488
1084,0.488
1086,0.488
1088,0.488
1090,0.488
1092,0.488
1094,0.488
1096,0.488
1098,0.487
1100,0.507
1102,0.507
1104,0.507
1106,0.507
1108,0.506
1110,0.506
1112,0.505
1114,0.505
1116,0.504
1118,0.503
1120,0.503
1122,0.502
1124,0.501
1126,0.5
1128,0.498
1130,0.497
1132,0.495
1134,0.493
1136,0.491
1138,0.488
1140,0.485
1142,0.482
1144,0.479
1146,0.476
1148,0.473
1150,0.471
1152,0.468
1154,0.466
1156,0.464
1158,0.463
1160,0.461
1162,0.46
1164,0.459
1166,0.458
1168,0.458
1170,0.457
1172,0.456
1174,0.456
1176,0.455
1178,0.455
1180,0.454
1182,0.454
1184,0.453
1186,0.453
1188,0.452
1190,0.452
1192,0.451
1194,0.451
1196,0.451
1198,0.451
1200,0.451
1202,0.451
1204,0.451
1206,0.452
1208,0.452
1210,0.452
1212,0.453
1214,0.453
1216,0.454
1218,0.454
1220,0.455
1222,0.456
1224,0.456
1226,0.457
1228,0.457
1230,0.458
1232,0.458
1234,0.458
1236,0.459
1238,0.459
1240,0.46
1242,0.46
1244,0.461
1246,0.461
1248,0.461
1250,0.461
1252,0.462
1254,0.462
1256,0.462
1258,0.462
1260,0.463
1262,0.463
1264,0.463
1266,0.463
1268,0.463
1270,0.463
1272,0.463
1274,0.462
1276,0.462
1278,0.462
1280,0.462
1282,0.461
1284,0.461
1286,0.46
1288,0.46
1290,0.459
1292,0.458
1294,0.458
1296,0.457
1298,0.456
1300,0.455
1302,0.454
1304,0.452
1306,0.451
1308,0.449
1310,0.448
1312,0.446
1314,0.444
1316,0.442
1318,0.439
1320,0.437
1322,0.435
1324,0.432
1326,0.429
1328,0.426
1330,0.423
1332,0.42
1334,0.417
1336,0.414
1338,0.411
1340,0.408
1342,0.405
1344,0.402
1346,0.399
1348,0.396
1350,0.393
1352,0.391
1354,0.388
1356,0.386
1358,0.383
1360,0.38
1362,0.377
1364,0.374
1366,0.371
1368,0.367
1370,0.362
1372,0.357
1374,0.352
1376,0.345
1378,0.338
1380,0.329
1382,0.319
1384,0.308
1386,0.297
1388,0.285
1390,0.272
1392,0.258
1394,0.245
1396,0.232
1398,0.22
1400,0.208
1402,0.198
1404,0.188
1406,0.179
1408,0.171
1410,0.164
1412,0.157
1414,0.152
1416,0.147
1418,0.142
1420,0.139
1422,0.135
1424,0.132
1426,0.13
1428,0.127
1430,0.125
1432,0.124
1434,0.122
1436,0.121
1438,0.12
1440,0.119
1442,0.118
1444,0.117
1446,0.117
1448,0.116
1450,0.116
1452,0.116
1454,0.116
1456,0.116
1458,0.116
1460,0.116
1462,0.117
1464,0.118
1466,0.118
1468,0.119
1470,0.121
1472,0.122
1474,0.124
1476,0.125
1478,0.127
1480,0.129
1482,0.131
1484,0.133
1486,0.135
1488,0.138
1490,0.14
1492,0.142
1494,0.145
1496,0.147
1498,0.149
1500,0.152
1502,0.155
1504,0.157
1506,0.16
1508,0.163
1510,0.166
1512,0.168
1514,0.171
1516,0.174
1518,0.177
1520,0.179
1522,0.182
1524,0.185
1526,0.188
1528,0.19
1530,0.193
1532,0.196
1534,0.198
1536,0.201
1538,0.203
1540,0.206
1542,0.208
1544,0.211
1546,0.213
1548,0.216
1550,0.218
1552,0.22
1554,0.223
1556,0.225
1558,0.227
1560,0.229
1562,0.232
1564,0.234
1566,0.236
1568,0.238
1570,0.24
1572,0.242
1574,0.244
1576,0.246
1578,0.248
1580,0.25
1582,0.252
1584,0.254
1586,0.255
1588,0.257
1590,0.259
1592,0.261
1594,0.263
1596,0.264
1598,0.266
1600,0.268
1602,0.27
1604,0.271
1606,0.273
1608,0.275
1610,0.276
1612,0.278
1614,0.279
1616,0.281
1618,0.282
1620,0.283
1622,0.285
1624,0.286
1626,0.287
1628,0.289
1630,0.29
1632,0.291
1634,0.292
1636,0.293
1638,0.294
1640,0.295
1642,0.295
1644,0.296
1646,0.297
1648,0.297
1650,0.297
1652,0.298
1654,0.298
1656,0.298
1658,0.298
1660,0.298
1662,0.298
1664,0.298
1666,0.299
1668,0.299
1670,0.299
1672,0.299
1674,0.299
1676,0.299
1678,0.299
1680,0.299
1682,0.299
1684,0.299
1686,0.299
1688,0.298
1690,0.298
1692,0.297
1694,0.297
1696,0.296
1698,0.296
1700,0.295
1702,0.295
1704,0.294
1706,0.294
1708,0.293
1710,0.293
1712,0.292
1714,0.292
1716,0.291
1718,0.29
1720,0.29
1722,0.289
1724,0.288
1726,0.287
1728,0.287
1730,0.286
1732,0.285
1734,0.285
1736,0.284
1738,0.283
1740,0.282
1742,0.281
1744,0.28
1746,0.279
1748,0.277
1750,0.276
1752,0.275
1754,0.274
1756,0.273
1758,0.271
1760,0.27
1762,0.269
1764,0.268
1766,0.267
1768,0.266
1770,0.266
1772,0.265
1774,0.264
1776,0.264
1778,0.263
1780,0.263
1782,0.262
1784,0.262
1786,0.262
1788,0.263
1790,0.263
1792,0.263
1794,0.264
1796,0.264
1798,0.264
1800,0.265
1802,0.265
1804,0.266
1806,0.266
1808,0.267
1810,0.267
1812,0.268
1814,0.268
1816,0.268
1818,0.269
1820,0.269
1822,0.269
1824,0.269
1826,0.269
1828,0.269
1830,0.268
1832,0.268
1834,0.268
1836,0.267
1838,0.266
1840,0.265
1842,0.263
1844,0.261
1846,0.259
1848,0.257
1850,0.253
1852,0.25
1854,0.246
1856,0.241
1858,0.235
1860,0.229
1862,0.222
1864,0.214
1866,0.206
1868,0.197
1870,0.187
1872,0.176
1874,0.164
1876,0.153
1878,0.141
1880,0.13
1882,0.119
1884,0.108
1886,0.098
1888,0.089
1890,0.081
1892,0.073
1894,0.068
1896,0.063
1898,0.059
1900,0.055
1902,0.053
1904,0.051
1906,0.049
1908,0.048
1910,0.047
1912,0.046
1914,0.046
1916,0.045
1918,0.045
1920,0.045
1922,0.044
1924,0.044
1926,0.044
1928,0.044
1930,0.044
1932,0.044
1934,0.044
1936,0.044
1938,0.044
1940,0.044
1942,0.044
1944,0.044
1946,0.045
1948,0.045
1950,0.045
1952,0.045
1954,0.045
1956,0.046
1958,0.046
1960,0.046
1962,0.047
1964,0.047
1966,0.047
1968,0.048
1970,0.048
1972,0.049
1974,0.049
1976,0.05
1978,0.05
1980,0.051
1982,0.052
1984,0.052
1986,0.053
1988,0.054
1990,0.054
1992,0.055
1994,0.056
1996,0.057
1998,0.057
2000,0.058
2002,0.059
2004,0.06
2006,0.061
2008,0.062
2010,0.062
2012,0.063
2014,0.064
2016,0.065
2018,0.066
2020,0.067
2022,0.068
2024,0.069
2026,0.07
2028,0.071
2030,0.072
2032,0.072
2034,0.073
2036,0.074
2038,0.075
2040,0.076
2042,0.077
2044,0.077
2046,0.078
2048,0.079
2050,0.08
2052,0.081
2054,0.082
2056,0.082
2058,0.083
2060,0.084
2062,0.085
2064,0.086
2066,0.087
2068,0.088
2070,0.089
2072,0.09
2074,0.09
2076,0.091
2078,0.092
2080,0.093
2082,0.094
2084,0.095
2086,0.096
2088,0.097
2090,0.098
2092,0.098
2094,0.099
2096,0.1
2098,0.101
2100,0.102
2102,0.103
2104,0.104
2106,0.105
2108,0.105
2110,0.106
2112,0.107
2114,0.108
2116,0.108
2118,0.109
2120,0.11
2122,0.111
2124,0.112
2126,0.112
2128,0.113
2130,0.114
2132,0.114
2134,0.115
2136,0.116
2138,0.116
2140,0.117
2142,0.117
2144,0.118
2146,0.119
2148,0.12
2150,0.12
2152,0.121
2154,0.122
2156,0.123
2158,0.123
2160,0.124
2162,0.125
2164,0.126
2166,0.127
2168,0.127
2170,0.128
2172,0.129
2174,0.13
2176,0.13
2178,0.131
2180,0.132
2182,0.133
2184,0.133
2186,0.134
2188,0.135
2190,0.136
2192,0.137
2194,0.137
2196,0.138
2198,0.139
2200,0.139
2202,0.14
2204,0.14
2206,0.141
2208,0.141
2210,0.142
2212,0.142
2214,0.142
2216,0.142
2218,0.142
2220,0.142
2222,0.142
2224,0.142
2226,0.142
2228,0.142
2230,0.141
2232,0.141
2234,0.14
2236,0.139
2238,0.139
2240,0.138
2242,0.137
2244,0.136
2246,0.135
2248,0.134
2250,0.132
2252,0.131
2254,0.13
2256,0.128
2258,0.127
2260,0.125
2262,0.124
2264,0.122
2266,0.121
2268,0.119
2270,0.118
2272,0.117
2274,0.116
2276,0.115
2278,0.113
2280,0.112
2282,0.111
2284,0.11
2286,0.109
2288,0.109
2290,0.108
2292,0.107
2294,0.106
2296,0.105
2298,0.104
2300,0.104
2302,0.102
2304,0.101
2306,0.101
2308,0.1
2310,0.099
2312,0.098
2314,0.097
2316,0.097
2318,0.096
2320,0.096
2322,0.095
2324,0.094
2326,0.094
2328,0.093
2330,0.092
2332,0.091
2334,0.09
2336,0.09
2338,0.089
2340,0.088
2342,0.087
2344,0.086
2346,0.086
2348,0.085
2350,0.084
2352,0.083
2354,0.083
2356,0.082
2358,0.081
2360,0.08
2362,0.08
2364,0.079
2366,0.078
2368,0.078
2370,0.077
2372,0.076
2374,0.076
2376,0.075
2378,0.074
2380,0.074
2382,0.073
2384,0.072
2386,0.072
2388,0.071
2390,0.07
2392,0.069
2394,0.069
2396,0.068
2398,0.067
2400,0.067
2402,0.066
2404,0.065
2406,0.064
2408,0.064
2410,0.063
2412,0.062
2414,0.062
2416,0.061
2418,0.061
2420,0.06
2422,0.059
2424,0.059
2426,0.058
2428,0.058
2430,0.057
2432,0.056
2434,0.056
2436,0.055
2438,0.055
2440,0.054
2442,0.054
2444,0.053
2446,0.053
2448,0.052
2450,0.052
2452,0.051
2454,0.051
2456,0.05
2458,0.05
2460,0.049
2462,0.049
2464,0.049
2466,0.048
2468,0.048
2470,0.048
2472,0.047
2474,0.047
2476,0.047
2478,0.047
2480,0.046
2482,0.046
2484,0.046
2486,0.046
2488,0.045
2490,0.045
2492,0.045
2494,0.045
2496,0.045
2498,0.045
