#---
#spectra_types: PA
#resources:
#  fields:
#  - name: wavelengths
#    type: number
#  - name: accp|PSME_SC10_dry|NA.001
#    type: number
#
#---
wavelengths,accp|PSME_SC10_dry|NA.001
400,0.96
402,0.9732
404,0.9836
406,0.9915
408,0.9971
410,1.0018
412,1.0047
414,1.0067
416,1.0078
418,1.0091
420,1.0101
422,1.0104
424,1.0112
426,1.0117
428,1.0123
430,1.0135
432,1.0137
434,1.0143
436,1.0153
438,1.0162
440,1.017
442,1.0177
444,1.0175
446,1.0181
448,1.0184
450,1.0183
452,1.0183
454,1.0184
456,1.0179
458,1.0179
460,1.018
462,1.0171
464,1.016
466,1.0142
468,1.013
470,1.0108
472,1.0079
474,1.0045
476,1.001
478,0.9965
480,0.9935
482,0.9882
484,0.983
486,0.9777
488,0.973
490,0.9668
492,0.9621
494,0.9563
496,0.9503
498,0.944
500,0.9366
502,0.9295
504,0.922
506,0.9125
508,0.9031
510,0.8938
512,0.8831
514,0.8724
516,0.8622
518,0.8522
520,0.844
522,0.8355
524,0.8293
526,0.8235
528,0.8197
530,0.8166
532,0.8142
534,0.8122
536,0.8113
538,0.81
540,0.8094
542,0.808
544,0.8065
546,0.8052
548,0.8036
550,0.801
552,0.7986
554,0.7975
556,0.7968
558,0.7964
560,0.7967
562,0.7977
564,0.7996
566,0.8021
568,0.8046
570,0.808
572,0.8111
574,0.8143
576,0.8179
578,0.8218
580,0.8251
582,0.8292
584,0.8331
586,0.8374
588,0.8421
590,0.847
592,0.852
594,0.8573
596,0.8627
598,0.8683
600,0.8738
602,0.8793
604,0.8847
606,0.8897
608,0.8938
610,0.8978
612,0.9008
614,0.9033
616,0.9051
618,0.9064
620,0.9074
622,0.9083
624,0.9095
626,0.9109
628,0.913
630,0.9155
632,0.9191
634,0.9234
636,0.9289
638,0.9356
640,0.9431
642,0.9509
644,0.9592
646,0.9672
648,0.9751
650,0.9835
652,0.9915
654,0.9997
656,1.0077
658,1.0153
660,1.0223
662,1.0285
664,1.0338
666,1.0379
668,1.0403
670,1.0408
672,1.0388
674,1.0339
676,1.0257
678,1.0132
680,0.9968
682,0.9759
684,0.9491
686,0.9191
688,0.8844
690,0.8468
692,0.8082
694,0.768
696,0.7286
698,0.6904
700,0.6527
702,0.6178
704,0.585
706,0.5533
708,0.5253
710,0.499
712,0.4743
714,0.4526
716,0.4323
718,0.4136
720,0.3969
722,0.3813
724,0.3671
726,0.3542
728,0.3422
730,0.3313
732,0.3215
734,0.3124
736,0.3045
738,0.2973
740,0.2906
742,0.285
744,0.2799
746,0.2753
748,0.2714
750,0.2678
752,0.2646
754,0.2618
756,0.2593
758,0.257
760,0.255
762,0.2531
764,0.2513
766,0.2497
768,0.248
770,0.2463
772,0.2447
774,0.2432
776,0.2419
778,0.2408
780,0.2398
782,0.239
784,0.2382
786,0.2374
788,0.2366
790,0.2358
792,0.235
794,0.2343
796,0.2336
798,0.2329
800,0.2322
802,0.2315
804,0.2308
806,0.2301
808,0.2294
810,0.2287
812,0.228
814,0.2273
816,0.2266
818,0.2258
820,0.2251
822,0.2244
824,0.2237
826,0.2229
828,0.2222
830,0.2214
832,0.2207
834,0.2199
836,0.2192
838,0.2185
840,0.2178
842,0.2171
844,0.2164
846,0.2157
848,0.2151
850,0.2145
852,0.2138
854,0.2132
856,0.2127
858,0.2121
860,0.2116
862,0.2111
864,0.2106
866,0.2101
868,0.2097
870,0.2092
872,0.2088
874,0.2084
876,0.2079
878,0.2076
880,0.2071
882,0.2067
884,0.2064
886,0.206
888,0.2057
890,0.2054
892,0.2052
894,0.2049
896,0.2047
898,0.2045
900,0.2043
902,0.2041
904,0.2039
906,0.2037
908,0.2035
910,0.2033
912,0.2031
914,0.2028
916,0.2025
918,0.2022
920,0.2018
922,0.2014
924,0.201
926,0.2006
928,0.2002
930,0.1997
932,0.1992
934,0.1988
936,0.1983
938,0.1979
940,0.1974
942,0.197
944,0.1966
946,0.1962
948,0.1959
950,0.1956
952,0.1953
954,0.1951
956,0.195
958,0.195
960,0.195
962,0.1951
964,0.1954
966,0.1957
968,0.1962
970,0.1968
972,0.1974
974,0.198
976,0.1986
978,0.1992
980,0.1998
982,0.2003
984,0.2007
986,0.2009
988,0.2011
990,0.2012
992,0.2012
994,0.2012
996,0.201
998,0.2008
1000,0.2006
1002,0.2003
1004,0.2
1006,0.1997
1008,0.1994
1010,0.1991
1012,0.1987
1014,0.1984
1016,0.198
1018,0.1976
1020,0.1973
1022,0.1969
1024,0.1965
1026,0.1962
1028,0.1958
1030,0.1955
1032,0.1951
1034,0.1948
1036,0.1945
1038,0.1941
1040,0.1938
1042,0.1935
1044,0.1932
1046,0.1929
1048,0.1926
1050,0.1923
1052,0.1921
1054,0.1918
1056,0.1917
1058,0.1914
1060,0.1911
1062,0.1909
1064,0.1906
1066,0.1904
1068,0.1902
1070,0.1899
1072,0.1897
1074,0.1896
1076,0.1894
1078,0.1893
1080,0.1891
1082,0.189
1084,0.1888
1086,0.1887
1088,0.1886
1090,0.1885
1092,0.1884
1094,0.1884
1096,0.1883
1098,0.1883
1100,0.1816
1102,0.1818
1104,0.182
1106,0.1823
1108,0.1827
1110,0.1831
1112,0.1835
1114,0.1841
1116,0.1847
1118,0.1854
1120,0.1862
1122,0.1871
1124,0.1881
1126,0.1891
1128,0.1902
1130,0.1914
1132,0.1926
1134,0.1938
1136,0.195
1138,0.1962
1140,0.1974
1142,0.1985
1144,0.1996
1146,0.2008
1148,0.2019
1150,0.2031
1152,0.2044
1154,0.2058
1156,0.2074
1158,0.209
1160,0.2108
1162,0.2126
1164,0.2145
1166,0.2163
1168,0.2182
1170,0.22
1172,0.2219
1174,0.2238
1176,0.2257
1178,0.2277
1180,0.2298
1182,0.2318
1184,0.2339
1186,0.2359
1188,0.2379
1190,0.2397
1192,0.2413
1194,0.2428
1196,0.2442
1198,0.2453
1200,0.2461
1202,0.2467
1204,0.2471
1206,0.2472
1208,0.2471
1210,0.2468
1212,0.2463
1214,0.2456
1216,0.2447
1218,0.2437
1220,0.2426
1222,0.2413
1224,0.2401
1226,0.2389
1228,0.2377
1230,0.2366
1232,0.2355
1234,0.2346
1236,0.2337
1238,0.2328
1240,0.232
1242,0.2313
1244,0.2307
1246,0.2301
1248,0.2296
1250,0.2291
1252,0.2288
1254,0.2284
1256,0.2282
1258,0.228
1260,0.2279
1262,0.2277
1264,0.2276
1266,0.2275
1268,0.2274
1270,0.2273
1272,0.2271
1274,0.2269
1276,0.2267
1278,0.2264
1280,0.2261
1282,0.2257
1284,0.2254
1286,0.225
1288,0.2247
1290,0.2244
1292,0.2241
1294,0.2238
1296,0.2236
1298,0.2234
1300,0.2233
1302,0.2232
1304,0.2232
1306,0.2232
1308,0.2233
1310,0.2234
1312,0.2236
1314,0.2238
1316,0.2241
1318,0.2244
1320,0.2249
1322,0.2254
1324,0.226
1326,0.2268
1328,0.2277
1330,0.2287
1332,0.2299
1334,0.2313
1336,0.2329
1338,0.2347
1340,0.2366
1342,0.2388
1344,0.2413
1346,0.2439
1348,0.2467
1350,0.2497
1352,0.2526
1354,0.2558
1356,0.2588
1358,0.2618
1360,0.2648
1362,0.2676
1364,0.2702
1366,0.2727
1368,0.275
1370,0.2772
1372,0.2792
1374,0.2811
1376,0.2831
1378,0.2849
1380,0.2868
1382,0.2886
1384,0.2905
1386,0.2924
1388,0.2944
1390,0.2964
1392,0.2987
1394,0.301
1396,0.3039
1398,0.3072
1400,0.3111
1402,0.3159
1404,0.3214
1406,0.3278
1408,0.3353
1410,0.3434
1412,0.3528
1414,0.3626
1416,0.3731
1418,0.3843
1420,0.3953
1422,0.4066
1424,0.4175
1426,0.428
1428,0.4382
1430,0.4472
1432,0.4557
1434,0.4634
1436,0.47
1438,0.4759
1440,0.4808
1442,0.4848
1444,0.4882
1446,0.4907
1448,0.4927
1450,0.4942
1452,0.4952
1454,0.4959
1456,0.4963
1458,0.4965
1460,0.4965
1462,0.4964
1464,0.4961
1466,0.4957
1468,0.4953
1470,0.4947
1472,0.4942
1474,0.4935
1476,0.4929
1478,0.4923
1480,0.4916
1482,0.491
1484,0.4903
1486,0.4897
1488,0.4891
1490,0.4884
1492,0.4877
1494,0.4869
1496,0.4861
1498,0.4852
1500,0.4842
1502,0.4832
1504,0.4822
1506,0.481
1508,0.4799
1510,0.4787
1512,0.4776
1514,0.4764
1516,0.4752
1518,0.4742
1520,0.4731
1522,0.4721
1524,0.4713
1526,0.4705
1528,0.4698
1530,0.4692
1532,0.4687
1534,0.4683
1536,0.468
1538,0.4677
1540,0.4675
1542,0.4673
1544,0.4672
1546,0.467
1548,0.4669
1550,0.4668
1552,0.4667
1554,0.4667
1556,0.4666
1558,0.4666
1560,0.4666
1562,0.4666
1564,0.4666
1566,0.4665
1568,0.4665
1570,0.4664
1572,0.4662
1574,0.466
1576,0.4657
1578,0.4654
1580,0.4649
1582,0.4644
1584,0.4638
1586,0.4632
1588,0.4624
1590,0.4616
1592,0.4606
1594,0.4596
1596,0.4585
1598,0.4573
1600,0.4561
1602,0.4548
1604,0.4535
1606,0.4522
1608,0.4509
1610,0.4497
1612,0.4485
1614,0.4474
1616,0.4463
1618,0.4453
1620,0.4445
1622,0.4438
1624,0.4432
1626,0.4428
1628,0.4425
1630,0.4423
1632,0.4421
1634,0.4418
1636,0.4414
1638,0.441
1640,0.4406
1642,0.4402
1644,0.4401
1646,0.4403
1648,0.4408
1650,0.4416
1652,0.4428
1654,0.4443
1656,0.4459
1658,0.4477
1660,0.4495
1662,0.4513
1664,0.453
1666,0.4546
1668,0.4561
1670,0.4574
1672,0.4587
1674,0.46
1676,0.4611
1678,0.4623
1680,0.4633
1682,0.4644
1684,0.4657
1686,0.4674
1688,0.4698
1690,0.4724
1692,0.4752
1694,0.4778
1696,0.4801
1698,0.4824
1700,0.4848
1702,0.4875
1704,0.4904
1706,0.4935
1708,0.4965
1710,0.4992
1712,0.5016
1714,0.5034
1716,0.5048
1718,0.5058
1720,0.5064
1722,0.5067
1724,0.5067
1726,0.5064
1728,0.5057
1730,0.5047
1732,0.5034
1734,0.502
1736,0.5006
1738,0.4996
1740,0.4988
1742,0.4985
1744,0.4985
1746,0.4987
1748,0.499
1750,0.4993
1752,0.4995
1754,0.4995
1756,0.4993
1758,0.4988
1760,0.4982
1762,0.4973
1764,0.4963
1766,0.495
1768,0.4936
1770,0.4922
1772,0.4908
1774,0.4895
1776,0.4882
1778,0.4869
1780,0.4855
1782,0.4841
1784,0.4828
1786,0.4815
1788,0.4804
1790,0.4793
1792,0.4783
1794,0.4774
1796,0.4765
1798,0.4757
1800,0.4749
1802,0.4742
1804,0.4735
1806,0.4729
1808,0.4723
1810,0.4717
1812,0.4712
1814,0.4707
1816,0.4702
1818,0.4696
1820,0.469
1822,0.4683
1824,0.4675
1826,0.4666
1828,0.4656
1830,0.4645
1832,0.4635
1834,0.4625
1836,0.4616
1838,0.4607
1840,0.4597
1842,0.4587
1844,0.4575
1846,0.4564
1848,0.4554
1850,0.4547
1852,0.4542
1854,0.4538
1856,0.4536
1858,0.4534
1860,0.4533
1862,0.4533
1864,0.4533
1866,0.4534
1868,0.4537
1870,0.4541
1872,0.4547
1874,0.4556
1876,0.4566
1878,0.458
1880,0.4596
1882,0.4617
1884,0.4642
1886,0.4672
1888,0.4709
1890,0.4753
1892,0.4805
1894,0.4863
1896,0.4929
1898,0.5001
1900,0.5078
1902,0.516
1904,0.5241
1906,0.5323
1908,0.5399
1910,0.5472
1912,0.5539
1914,0.5599
1916,0.5653
1918,0.5699
1920,0.5739
1922,0.5771
1924,0.5798
1926,0.5818
1928,0.5831
1930,0.584
1932,0.5844
1934,0.5844
1936,0.5841
1938,0.5834
1940,0.5825
1942,0.5814
1944,0.5802
1946,0.5788
1948,0.5774
1950,0.5759
1952,0.5745
1954,0.573
1956,0.5715
1958,0.5701
1960,0.5688
1962,0.5675
1964,0.5663
1966,0.5652
1968,0.5641
1970,0.5631
1972,0.5622
1974,0.5614
1976,0.5606
1978,0.5599
1980,0.5593
1982,0.5588
1984,0.5586
1986,0.5585
1988,0.5586
1990,0.5589
1992,0.5595
1994,0.5604
1996,0.5615
1998,0.5629
2000,0.5647
2002,0.5667
2004,0.5691
2006,0.5719
2008,0.575
2010,0.5785
2012,0.5824
2014,0.5869
2016,0.5917
2018,0.597
2020,0.6026
2022,0.6088
2024,0.6151
2026,0.6218
2028,0.6286
2030,0.6356
2032,0.6427
2034,0.6497
2036,0.657
2038,0.6641
2040,0.6713
2042,0.6784
2044,0.6854
2046,0.6922
2048,0.6988
2050,0.7052
2052,0.7112
2054,0.717
2056,0.7223
2058,0.7275
2060,0.7323
2062,0.7368
2064,0.7411
2066,0.7452
2068,0.7492
2070,0.7529
2072,0.7565
2074,0.7599
2076,0.7633
2078,0.7665
2080,0.7695
2082,0.7724
2084,0.7752
2086,0.7779
2088,0.7805
2090,0.783
2092,0.7853
2094,0.7875
2096,0.7897
2098,0.7916
2100,0.7934
2102,0.7951
2104,0.7966
2106,0.798
2108,0.7993
2110,0.8004
2112,0.8015
2114,0.8025
2116,0.8034
2118,0.8041
2120,0.8048
2122,0.8053
2124,0.8057
2126,0.8059
2128,0.806
2130,0.806
2132,0.8058
2134,0.8055
2136,0.805
2138,0.8044
2140,0.8035
2142,0.8025
2144,0.8012
2146,0.7996
2148,0.7979
2150,0.7961
2152,0.794
2154,0.7919
2156,0.7896
2158,0.7871
2160,0.7846
2162,0.782
2164,0.7794
2166,0.7767
2168,0.7741
2170,0.7714
2172,0.7688
2174,0.766
2176,0.7632
2178,0.7605
2180,0.7577
2182,0.755
2184,0.7523
2186,0.7495
2188,0.7468
2190,0.744
2192,0.7414
2194,0.7388
2196,0.7362
2198,0.7338
2200,0.7314
2202,0.7291
2204,0.7268
2206,0.7247
2208,0.7228
2210,0.721
2212,0.7193
2214,0.7178
2216,0.7165
2218,0.7156
2220,0.7149
2222,0.7146
2224,0.7147
2226,0.7151
2228,0.7161
2230,0.7176
2232,0.7195
2234,0.722
2236,0.7251
2238,0.7288
2240,0.7329
2242,0.7373
2244,0.7423
2246,0.7475
2248,0.7531
2250,0.759
2252,0.7652
2254,0.7714
2256,0.7779
2258,0.7842
2260,0.7908
2262,0.797
2264,0.8031
2266,0.8088
2268,0.8141
2270,0.8188
2272,0.8229
2274,0.8263
2276,0.8291
2278,0.8315
2280,0.8335
2282,0.8353
2284,0.837
2286,0.8388
2288,0.8407
2290,0.8429
2292,0.8454
2294,0.8484
2296,0.8517
2298,0.8554
2300,0.8592
2302,0.8631
2304,0.8664
2306,0.8693
2308,0.8713
2310,0.8724
2312,0.8723
2314,0.8712
2316,0.8696
2318,0.8679
2320,0.8667
2322,0.8662
2324,0.8662
2326,0.8666
2328,0.8672
2330,0.8678
2332,0.8683
2334,0.8687
2336,0.8692
2338,0.8696
2340,0.8701
2342,0.8707
2344,0.8711
2346,0.8714
2348,0.8712
2350,0.8704
2352,0.8688
2354,0.8667
2356,0.8642
2358,0.8616
2360,0.8592
2362,0.8569
2364,0.855
2366,0.8531
2368,0.8515
2370,0.8502
2372,0.8491
2374,0.8484
2376,0.8478
2378,0.8475
2380,0.8473
2382,0.847
2384,0.8469
2386,0.8465
2388,0.846
2390,0.8454
2392,0.8447
2394,0.844
2396,0.8434
2398,0.8431
2400,0.843
2402,0.8433
2404,0.844
2406,0.8449
2408,0.846
2410,0.8474
2412,0.8489
2414,0.8506
2416,0.8525
2418,0.8547
2420,0.8571
2422,0.8597
2424,0.8626
2426,0.8656
2428,0.869
2430,0.8725
2432,0.8762
2434,0.8802
2436,0.8845
2438,0.889
2440,0.8937
2442,0.8984
2444,0.9034
2446,0.9085
2448,0.9136
2450,0.9189
2452,0.9243
2454,0.9298
2456,0.9354
2458,0.9409
2460,0.9463
2462,0.9514
2464,0.9562
2466,0.9607
2468,0.9648
2470,0.9688
2472,0.9724
2474,0.9761
2476,0.9794
2478,0.9824
2480,0.9853
2482,0.988
2484,0.9903
2486,0.9922
2488,0.9938
2490,0.9951
2492,0.9962
2494,0.9968
2496,0.9972
2498,0.9974
