#---
#spectra_types: PA
#resources:
#  fields:
#  - name: wavelengths
#    type: number
#  - name: accp|PSME_SC35_dry|NA.001
#    type: number
#
#---
wavelengths,accp|PSME_SC35_dry|NA.001
400,0.9836
402,0.9971
404,1.0094
406,1.0186
408,1.0263
410,1.031
412,1.037
414,1.0393
416,1.0416
418,1.0429
420,1.0439
422,1.0461
424,1.0474
426,1.0481
428,1.0496
430,1.0509
432,1.0518
434,1.0535
436,1.0535
438,1.054
440,1.0548
442,1.0548
444,1.0549
446,1.0556
448,1.0552
450,1.0554
452,1.0549
454,1.0547
456,1.0544
458,1.0544
460,1.0532
462,1.0529
464,1.0517
466,1.0495
468,1.0481
470,1.0452
472,1.0425
474,1.039
476,1.0358
478,1.0309
480,1.0264
482,1.0222
484,1.0171
486,1.0121
488,1.0072
490,1.0018
492,0.9971
494,0.9915
496,0.9868
498,0.9811
500,0.9748
502,0.9686
504,0.9619
506,0.9536
508,0.9464
510,0.9377
512,0.9289
514,0.9208
516,0.9123
518,0.9043
520,0.8974
522,0.8916
524,0.8867
526,0.8829
528,0.8806
530,0.8792
532,0.8779
534,0.8775
536,0.8775
538,0.8778
540,0.8775
542,0.8777
544,0.8775
546,0.877
548,0.877
550,0.8763
552,0.8759
554,0.876
556,0.8768
558,0.8788
560,0.8808
562,0.8834
564,0.8869
566,0.8909
568,0.8952
570,0.8997
572,0.9043
574,0.9093
576,0.9142
578,0.9191
580,0.9234
582,0.9281
584,0.9324
586,0.9364
588,0.9412
590,0.9454
592,0.9497
594,0.9541
596,0.9586
598,0.9632
600,0.9678
602,0.972
604,0.9764
606,0.9807
608,0.9846
610,0.9886
612,0.9921
614,0.9946
616,0.9976
618,0.9996
620,1.0013
622,1.0028
624,1.0043
626,1.0059
628,1.0074
630,1.0091
632,1.0112
634,1.0142
636,1.0179
638,1.0227
640,1.0283
642,1.034
644,1.0401
646,1.0459
648,1.0515
650,1.0572
652,1.0628
654,1.0684
656,1.074
658,1.0791
660,1.0837
662,1.0878
664,1.0913
666,1.0942
668,1.0963
670,1.0971
672,1.0969
674,1.0947
676,1.0904
678,1.0831
680,1.0722
682,1.0572
684,1.0362
686,1.0111
688,0.9803
690,0.9452
692,0.9079
694,0.8678
696,0.8276
698,0.788
700,0.7485
702,0.7115
704,0.6763
706,0.6421
708,0.6117
710,0.5828
712,0.5555
714,0.5314
716,0.5086
718,0.4876
720,0.4687
722,0.451
724,0.4349
726,0.4202
728,0.4066
730,0.3943
732,0.3832
734,0.3728
736,0.3636
738,0.3553
740,0.3475
742,0.3408
744,0.3345
746,0.3288
748,0.3239
750,0.3193
752,0.3152
754,0.3116
756,0.3083
758,0.3052
760,0.3025
762,0.2998
764,0.2974
766,0.295
768,0.2925
770,0.2902
772,0.2879
774,0.2857
776,0.2839
778,0.2822
780,0.2807
782,0.2793
784,0.278
786,0.2767
788,0.2755
790,0.2741
792,0.2729
794,0.2716
796,0.2704
798,0.2692
800,0.268
802,0.2668
804,0.2657
806,0.2645
808,0.2633
810,0.2621
812,0.2609
814,0.2596
816,0.2584
818,0.2571
820,0.2559
822,0.2546
824,0.2533
826,0.252
828,0.2507
830,0.2494
832,0.2481
834,0.2468
836,0.2455
838,0.2442
840,0.243
842,0.2417
844,0.2406
846,0.2394
848,0.2382
850,0.2371
852,0.236
854,0.235
856,0.234
858,0.233
860,0.232
862,0.2311
864,0.2302
866,0.2294
868,0.2285
870,0.2277
872,0.2269
874,0.2261
876,0.2254
878,0.2247
880,0.224
882,0.2233
884,0.2226
886,0.222
888,0.2214
890,0.2209
892,0.2204
894,0.2199
896,0.2195
898,0.219
900,0.2186
902,0.2182
904,0.2178
906,0.2174
908,0.217
910,0.2166
912,0.2161
914,0.2157
916,0.2152
918,0.2147
920,0.2141
922,0.2136
924,0.213
926,0.2124
928,0.2118
930,0.2112
932,0.2106
934,0.21
936,0.2094
938,0.2088
940,0.2082
942,0.2076
944,0.2071
946,0.2066
948,0.2062
950,0.2058
952,0.2054
954,0.2051
956,0.2049
958,0.2047
960,0.2046
962,0.2046
964,0.2046
966,0.2047
968,0.2049
970,0.2051
972,0.2054
974,0.2057
976,0.2059
978,0.2062
980,0.2065
982,0.2067
984,0.2069
986,0.2071
988,0.2071
990,0.2071
992,0.2071
994,0.207
996,0.2068
998,0.2066
1000,0.2064
1002,0.2061
1004,0.2059
1006,0.2056
1008,0.2053
1010,0.205
1012,0.2047
1014,0.2044
1016,0.204
1018,0.2037
1020,0.2034
1022,0.203
1024,0.2026
1026,0.2023
1028,0.202
1030,0.2016
1032,0.2012
1034,0.2009
1036,0.2006
1038,0.2002
1040,0.1999
1042,0.1996
1044,0.1992
1046,0.1989
1048,0.1986
1050,0.1983
1052,0.198
1054,0.1978
1056,0.1976
1058,0.1973
1060,0.197
1062,0.1967
1064,0.1965
1066,0.1962
1068,0.196
1070,0.1958
1072,0.1956
1074,0.1954
1076,0.1953
1078,0.1951
1080,0.195
1082,0.1948
1084,0.1947
1086,0.1946
1088,0.1945
1090,0.1945
1092,0.1944
1094,0.1944
1096,0.1944
1098,0.1945
1100,0.1834
1102,0.1836
1104,0.1838
1106,0.1841
1108,0.1844
1110,0.1849
1112,0.1854
1114,0.186
1116,0.1866
1118,0.1874
1120,0.1882
1122,0.1891
1124,0.1902
1126,0.1913
1128,0.1925
1130,0.1938
1132,0.1951
1134,0.1965
1136,0.1979
1138,0.1992
1140,0.2006
1142,0.202
1144,0.2034
1146,0.2048
1148,0.2063
1150,0.2078
1152,0.2095
1154,0.2112
1156,0.213
1158,0.215
1160,0.2169
1162,0.219
1164,0.221
1166,0.223
1168,0.2249
1170,0.2268
1172,0.2286
1174,0.2304
1176,0.2322
1178,0.2341
1180,0.236
1182,0.2379
1184,0.2398
1186,0.2415
1188,0.2431
1190,0.2446
1192,0.2459
1194,0.2471
1196,0.248
1198,0.2488
1200,0.2493
1202,0.2496
1204,0.2496
1206,0.2494
1208,0.2489
1210,0.2483
1212,0.2475
1214,0.2466
1216,0.2455
1218,0.2442
1220,0.2429
1222,0.2415
1224,0.2402
1226,0.2389
1228,0.2377
1230,0.2366
1232,0.2355
1234,0.2346
1236,0.2337
1238,0.2329
1240,0.2322
1242,0.2315
1244,0.2309
1246,0.2304
1248,0.2299
1250,0.2295
1252,0.2292
1254,0.2289
1256,0.2287
1258,0.2286
1260,0.2285
1262,0.2284
1264,0.2284
1266,0.2284
1268,0.2283
1270,0.2283
1272,0.2283
1274,0.2282
1276,0.2281
1278,0.2279
1280,0.2277
1282,0.2275
1284,0.2273
1286,0.227
1288,0.2268
1290,0.2266
1292,0.2264
1294,0.2263
1296,0.2262
1298,0.2262
1300,0.2262
1302,0.2262
1304,0.2264
1306,0.2265
1308,0.2268
1310,0.227
1312,0.2274
1314,0.2278
1316,0.2282
1318,0.2288
1320,0.2294
1322,0.2302
1324,0.231
1326,0.232
1328,0.2331
1330,0.2343
1332,0.2358
1334,0.2373
1336,0.239
1338,0.2409
1340,0.2429
1342,0.2451
1344,0.2475
1346,0.25
1348,0.2526
1350,0.2554
1352,0.2581
1354,0.2611
1356,0.2639
1358,0.2668
1360,0.2697
1362,0.2723
1364,0.2749
1366,0.2774
1368,0.2797
1370,0.282
1372,0.2841
1374,0.2862
1376,0.2884
1378,0.2906
1380,0.293
1382,0.2954
1384,0.298
1386,0.3008
1388,0.3036
1390,0.3066
1392,0.3099
1394,0.3133
1396,0.3173
1398,0.3217
1400,0.3266
1402,0.3323
1404,0.3384
1406,0.3452
1408,0.3527
1410,0.3604
1412,0.3689
1414,0.3774
1416,0.3861
1418,0.3952
1420,0.4039
1422,0.4128
1424,0.4213
1426,0.4294
1428,0.4374
1430,0.4445
1432,0.4514
1434,0.4577
1436,0.4632
1438,0.4684
1440,0.4728
1442,0.4766
1444,0.48
1446,0.4828
1448,0.4852
1450,0.4871
1452,0.4887
1454,0.4901
1456,0.4912
1458,0.4922
1460,0.493
1462,0.4936
1464,0.4942
1466,0.4946
1468,0.4948
1470,0.495
1472,0.495
1474,0.4949
1476,0.4947
1478,0.4945
1480,0.4942
1482,0.4938
1484,0.4935
1486,0.4932
1488,0.4928
1490,0.4924
1492,0.492
1494,0.4916
1496,0.491
1498,0.4905
1500,0.4898
1502,0.4892
1504,0.4885
1506,0.4877
1508,0.4869
1510,0.4861
1512,0.4852
1514,0.4843
1516,0.4834
1518,0.4824
1520,0.4815
1522,0.4806
1524,0.4798
1526,0.479
1528,0.4782
1530,0.4776
1532,0.4769
1534,0.4764
1536,0.4759
1538,0.4754
1540,0.4749
1542,0.4745
1544,0.4741
1546,0.4736
1548,0.4733
1550,0.4729
1552,0.4726
1554,0.4723
1556,0.4721
1558,0.4719
1560,0.4718
1562,0.4718
1564,0.4717
1566,0.4716
1568,0.4716
1570,0.4715
1572,0.4714
1574,0.4711
1576,0.4709
1578,0.4705
1580,0.4702
1582,0.4697
1584,0.4692
1586,0.4685
1588,0.4678
1590,0.4671
1592,0.4662
1594,0.4653
1596,0.4643
1598,0.4632
1600,0.4622
1602,0.461
1604,0.4599
1606,0.4588
1608,0.4576
1610,0.4566
1612,0.4555
1614,0.4545
1616,0.4535
1618,0.4527
1620,0.4519
1622,0.4513
1624,0.4508
1626,0.4505
1628,0.4502
1630,0.45
1632,0.4498
1634,0.4495
1636,0.4491
1638,0.4487
1640,0.4483
1642,0.448
1644,0.4478
1646,0.448
1648,0.4485
1650,0.4493
1652,0.4503
1654,0.4517
1656,0.4533
1658,0.455
1660,0.4567
1662,0.4585
1664,0.4601
1666,0.4616
1668,0.4631
1670,0.4645
1672,0.4659
1674,0.4673
1676,0.4687
1678,0.4701
1680,0.4714
1682,0.4727
1684,0.4743
1686,0.4764
1688,0.479
1690,0.4818
1692,0.4848
1694,0.4875
1696,0.4898
1698,0.4922
1700,0.4945
1702,0.4972
1704,0.5002
1706,0.5033
1708,0.5065
1710,0.5093
1712,0.5119
1714,0.5139
1716,0.5153
1718,0.5162
1720,0.5168
1722,0.5169
1724,0.5168
1726,0.5164
1728,0.5155
1730,0.5145
1732,0.513
1734,0.5116
1736,0.5102
1738,0.509
1740,0.5082
1742,0.5077
1744,0.5075
1746,0.5076
1748,0.5078
1750,0.508
1752,0.5081
1754,0.508
1756,0.5077
1758,0.5072
1760,0.5065
1762,0.5055
1764,0.5044
1766,0.5031
1768,0.5017
1770,0.5003
1772,0.499
1774,0.4977
1776,0.4965
1778,0.4953
1780,0.494
1782,0.4926
1784,0.4913
1786,0.4901
1788,0.489
1790,0.4879
1792,0.487
1794,0.4861
1796,0.4853
1798,0.4845
1800,0.4838
1802,0.4831
1804,0.4824
1806,0.4818
1808,0.4813
1810,0.4807
1812,0.4802
1814,0.4796
1816,0.4791
1818,0.4785
1820,0.4779
1822,0.4772
1824,0.4764
1826,0.4755
1828,0.4746
1830,0.4735
1832,0.4726
1834,0.4718
1836,0.471
1838,0.4702
1840,0.4694
1842,0.4685
1844,0.4675
1846,0.4667
1848,0.4659
1850,0.4654
1852,0.4652
1854,0.4651
1856,0.4652
1858,0.4655
1860,0.4658
1862,0.4662
1864,0.4668
1866,0.4676
1868,0.4687
1870,0.4701
1872,0.4718
1874,0.4738
1876,0.4763
1878,0.4793
1880,0.4827
1882,0.4869
1884,0.4919
1886,0.4977
1888,0.5047
1890,0.5127
1892,0.522
1894,0.5321
1896,0.5434
1898,0.5555
1900,0.5685
1902,0.5821
1904,0.5955
1906,0.6091
1908,0.6216
1910,0.6338
1912,0.645
1914,0.6551
1916,0.6643
1918,0.6722
1920,0.6792
1922,0.6849
1924,0.6896
1926,0.6932
1928,0.6958
1930,0.6975
1932,0.6984
1934,0.6985
1936,0.698
1938,0.6969
1940,0.6953
1942,0.6933
1944,0.691
1946,0.6884
1948,0.6856
1950,0.6827
1952,0.6798
1954,0.6767
1956,0.6738
1958,0.6708
1960,0.6679
1962,0.6651
1964,0.6624
1966,0.6598
1968,0.6573
1970,0.6549
1972,0.6526
1974,0.6503
1976,0.648
1978,0.6457
1980,0.6435
1982,0.6414
1984,0.6393
1986,0.6373
1988,0.6355
1990,0.6338
1992,0.6322
1994,0.6309
1996,0.6297
1998,0.6288
2000,0.6281
2002,0.6276
2004,0.6274
2006,0.6275
2008,0.628
2010,0.6287
2012,0.6298
2014,0.6314
2016,0.6333
2018,0.6357
2020,0.6384
2022,0.6417
2024,0.6453
2026,0.6493
2028,0.6536
2030,0.6581
2032,0.663
2034,0.668
2036,0.6734
2038,0.6788
2040,0.6845
2042,0.6901
2044,0.6959
2046,0.7016
2048,0.7071
2050,0.7124
2052,0.7174
2054,0.7221
2056,0.7263
2058,0.7301
2060,0.7336
2062,0.7368
2064,0.7397
2066,0.7424
2068,0.745
2070,0.7474
2072,0.7498
2074,0.7521
2076,0.7544
2078,0.7567
2080,0.759
2082,0.7612
2084,0.7634
2086,0.7656
2088,0.7677
2090,0.7699
2092,0.7719
2094,0.774
2096,0.776
2098,0.7779
2100,0.7798
2102,0.7816
2104,0.7833
2106,0.785
2108,0.7866
2110,0.7881
2112,0.7896
2114,0.791
2116,0.7924
2118,0.7938
2120,0.7951
2122,0.7962
2124,0.7973
2126,0.7983
2128,0.7991
2130,0.7999
2132,0.8006
2134,0.8012
2136,0.8017
2138,0.802
2140,0.8021
2142,0.8019
2144,0.8015
2146,0.8009
2148,0.8001
2150,0.7992
2152,0.7982
2154,0.797
2156,0.7958
2158,0.7943
2160,0.7928
2162,0.7911
2164,0.7894
2166,0.7876
2168,0.7857
2170,0.7837
2172,0.7817
2174,0.7794
2176,0.7772
2178,0.7749
2180,0.7725
2182,0.7701
2184,0.7676
2186,0.765
2188,0.7624
2190,0.7599
2192,0.7573
2194,0.7549
2196,0.7524
2198,0.7501
2200,0.7479
2202,0.7457
2204,0.7436
2206,0.7416
2208,0.7396
2210,0.7378
2212,0.736
2214,0.7344
2216,0.7331
2218,0.7319
2220,0.7311
2222,0.7305
2224,0.7304
2226,0.7306
2228,0.7313
2230,0.7325
2232,0.7342
2234,0.7365
2236,0.7393
2238,0.7426
2240,0.7463
2242,0.7505
2244,0.7551
2246,0.7601
2248,0.7654
2250,0.771
2252,0.777
2254,0.783
2256,0.7893
2258,0.7955
2260,0.8017
2262,0.8077
2264,0.8135
2266,0.8189
2268,0.8239
2270,0.8282
2272,0.8318
2274,0.8347
2276,0.8371
2278,0.8391
2280,0.8407
2282,0.8423
2284,0.8439
2286,0.8457
2288,0.8478
2290,0.8503
2292,0.8532
2294,0.8566
2296,0.8603
2298,0.8642
2300,0.8682
2302,0.872
2304,0.8754
2306,0.8781
2308,0.8799
2310,0.8806
2312,0.8803
2314,0.8788
2316,0.8769
2318,0.875
2320,0.8738
2322,0.8733
2324,0.8736
2326,0.8743
2328,0.8752
2330,0.8763
2332,0.8772
2334,0.878
2336,0.8789
2338,0.8799
2340,0.8808
2342,0.8818
2344,0.8826
2346,0.8832
2348,0.8833
2350,0.8827
2352,0.8814
2354,0.8794
2356,0.8771
2358,0.8748
2360,0.8725
2362,0.8705
2364,0.8686
2366,0.8669
2368,0.8654
2370,0.8642
2372,0.8633
2374,0.8626
2376,0.8622
2378,0.862
2380,0.862
2382,0.8621
2384,0.8621
2386,0.8621
2388,0.8619
2390,0.8616
2392,0.8612
2394,0.8608
2396,0.8606
2398,0.8604
2400,0.8605
2402,0.861
2404,0.8617
2406,0.8627
2408,0.8639
2410,0.8654
2412,0.8669
2414,0.8687
2416,0.8706
2418,0.8726
2420,0.875
2422,0.8775
2424,0.8801
2426,0.8829
2428,0.886
2430,0.8892
2432,0.8927
2434,0.8964
2436,0.9004
2438,0.9046
2440,0.9091
2442,0.9137
2444,0.9184
2446,0.9232
2448,0.928
2450,0.933
2452,0.9381
2454,0.9434
2456,0.9485
2458,0.9538
2460,0.9587
2462,0.9634
2464,0.9676
2466,0.9715
2468,0.9749
2470,0.9783
2472,0.9813
2474,0.9843
2476,0.9871
2478,0.9898
2480,0.9922
2482,0.9944
2484,0.9964
2486,0.9982
2488,0.9996
2490,1.0008
2492,1.0017
2494,1.0025
2496,1.003
2498,1.0034
