#---
#spectra_types: PA
#resources:
#  fields:
#  - name: wavelengths
#    type: number
#  - name: accp|PSME_SC62_dry|NA.001
#    type: number
#
#---
wavelengths,accp|PSME_SC62_dry|NA.001
400,0.9683
402,0.9836
404,0.996
406,1.0057
408,1.0135
410,1.0199
412,1.0232
414,1.0276
416,1.0312
418,1.0332
420,1.0357
422,1.0377
424,1.0391
426,1.0413
428,1.0426
430,1.0434
432,1.0448
434,1.0465
436,1.0472
438,1.0477
440,1.0473
442,1.0477
444,1.0466
446,1.0466
448,1.0465
450,1.0461
452,1.0456
454,1.045
456,1.0451
458,1.0441
460,1.044
462,1.0426
464,1.0415
466,1.0402
468,1.038
470,1.0347
472,1.0318
474,1.0288
476,1.0244
478,1.0207
480,1.0165
482,1.0118
484,1.0076
486,1.0027
488,0.9983
490,0.9918
492,0.9863
494,0.981
496,0.9754
498,0.9695
500,0.9635
502,0.957
504,0.9492
506,0.9426
508,0.9352
510,0.9271
512,0.9197
514,0.9131
516,0.9056
518,0.8996
520,0.8934
522,0.8895
524,0.8863
526,0.8849
528,0.8834
530,0.8834
532,0.884
534,0.885
536,0.8859
538,0.8867
540,0.8871
542,0.8868
544,0.8863
546,0.8856
548,0.8847
550,0.8833
552,0.8825
554,0.8817
556,0.8816
558,0.8824
560,0.8835
562,0.8851
564,0.8878
566,0.8909
568,0.8948
570,0.8981
572,0.9014
574,0.9052
576,0.9083
578,0.9115
580,0.915
582,0.9184
584,0.9212
586,0.924
588,0.927
590,0.9301
592,0.9334
594,0.9365
596,0.9399
598,0.9435
600,0.9473
602,0.9508
604,0.9549
606,0.9586
608,0.9625
610,0.9664
612,0.9696
614,0.9729
616,0.9753
618,0.9775
620,0.9793
622,0.9806
624,0.9814
626,0.9817
628,0.9821
630,0.9823
632,0.9831
634,0.9848
636,0.9874
638,0.9914
640,0.9957
642,1.0007
644,1.0058
646,1.0107
648,1.0156
650,1.0207
652,1.0258
654,1.0314
656,1.0363
658,1.0413
660,1.0456
662,1.0494
664,1.0526
666,1.0553
668,1.0571
670,1.0579
672,1.0578
674,1.0568
676,1.0541
678,1.0502
680,1.0433
682,1.033
684,1.0189
686,1.0001
688,0.9765
690,0.9492
692,0.9186
694,0.8847
696,0.8504
698,0.8148
700,0.7791
702,0.7446
704,0.7107
706,0.6783
708,0.648
710,0.6189
712,0.592
714,0.5671
716,0.5433
718,0.5219
720,0.5018
722,0.4827
724,0.4657
726,0.4496
728,0.4346
730,0.4212
732,0.4087
734,0.3972
736,0.3869
738,0.3773
740,0.3686
742,0.3609
744,0.3537
746,0.3473
748,0.3415
750,0.3361
752,0.3314
754,0.327
756,0.3228
758,0.3192
760,0.3157
762,0.3123
764,0.3093
766,0.3064
768,0.3035
770,0.3008
772,0.2982
774,0.2959
776,0.2937
778,0.2915
780,0.2896
782,0.2877
784,0.2859
786,0.2842
788,0.2825
790,0.2809
792,0.2794
794,0.2778
796,0.2763
798,0.2749
800,0.2735
802,0.2721
804,0.2707
806,0.2692
808,0.2679
810,0.2665
812,0.2651
814,0.2637
816,0.2623
818,0.2608
820,0.2594
822,0.258
824,0.2565
826,0.2551
828,0.2537
830,0.2522
832,0.2508
834,0.2493
836,0.2479
838,0.2465
840,0.2451
842,0.2438
844,0.2425
846,0.2411
848,0.2399
850,0.2386
852,0.2374
854,0.2362
856,0.2351
858,0.234
860,0.2329
862,0.2319
864,0.2309
866,0.2299
868,0.2289
870,0.228
872,0.2271
874,0.2262
876,0.2253
878,0.2244
880,0.2236
882,0.2229
884,0.2221
886,0.2214
888,0.2206
890,0.22
892,0.2193
894,0.2188
896,0.2182
898,0.2176
900,0.2171
902,0.2166
904,0.216
906,0.2155
908,0.215
910,0.2144
912,0.2139
914,0.2133
916,0.2128
918,0.2122
920,0.2116
922,0.2109
924,0.2103
926,0.2096
928,0.2089
930,0.2082
932,0.2075
934,0.2069
936,0.2062
938,0.2055
940,0.2048
942,0.2042
944,0.2036
946,0.203
948,0.2025
950,0.202
952,0.2016
954,0.2012
956,0.2009
958,0.2006
960,0.2004
962,0.2003
964,0.2003
966,0.2003
968,0.2004
970,0.2006
972,0.2008
974,0.201
976,0.2013
978,0.2015
980,0.2018
982,0.202
984,0.2021
986,0.2022
988,0.2023
990,0.2023
992,0.2022
994,0.202
996,0.2018
998,0.2016
1000,0.2013
1002,0.2011
1004,0.2008
1006,0.2004
1008,0.2001
1010,0.1998
1012,0.1994
1014,0.1991
1016,0.1987
1018,0.1984
1020,0.198
1022,0.1976
1024,0.1973
1026,0.1969
1028,0.1965
1030,0.1962
1032,0.1958
1034,0.1955
1036,0.1951
1038,0.1948
1040,0.1944
1042,0.1941
1044,0.1937
1046,0.1934
1048,0.1931
1050,0.1928
1052,0.1925
1054,0.1923
1056,0.192
1058,0.1917
1060,0.1914
1062,0.1912
1064,0.1909
1066,0.1907
1068,0.1904
1070,0.1902
1072,0.19
1074,0.1899
1076,0.1897
1078,0.1895
1080,0.1893
1082,0.1892
1084,0.1891
1086,0.189
1088,0.1889
1090,0.1888
1092,0.1887
1094,0.1887
1096,0.1887
1098,0.1887
1100,0.1786
1102,0.1789
1104,0.1791
1106,0.1794
1108,0.1798
1110,0.1802
1112,0.1806
1114,0.1812
1116,0.1818
1118,0.1825
1120,0.1833
1122,0.1842
1124,0.1852
1126,0.1862
1128,0.1874
1130,0.1887
1132,0.19
1134,0.1913
1136,0.1927
1138,0.1941
1140,0.1955
1142,0.1969
1144,0.1983
1146,0.1997
1148,0.2011
1150,0.2026
1152,0.2042
1154,0.206
1156,0.2078
1158,0.2098
1160,0.2118
1162,0.2139
1164,0.2159
1166,0.218
1168,0.22
1170,0.2219
1172,0.2238
1174,0.2256
1176,0.2275
1178,0.2294
1180,0.2314
1182,0.2333
1184,0.2353
1186,0.2371
1188,0.2388
1190,0.2403
1192,0.2417
1194,0.243
1196,0.244
1198,0.2449
1200,0.2455
1202,0.2459
1204,0.246
1206,0.2458
1208,0.2454
1210,0.2448
1212,0.2441
1214,0.2431
1216,0.242
1218,0.2407
1220,0.2393
1222,0.2378
1224,0.2364
1226,0.235
1228,0.2337
1230,0.2325
1232,0.2314
1234,0.2304
1236,0.2294
1238,0.2286
1240,0.2278
1242,0.227
1244,0.2264
1246,0.2258
1248,0.2253
1250,0.2248
1252,0.2245
1254,0.2242
1256,0.2239
1258,0.2237
1260,0.2236
1262,0.2235
1264,0.2235
1266,0.2235
1268,0.2234
1270,0.2234
1272,0.2234
1274,0.2233
1276,0.2231
1278,0.223
1280,0.2228
1282,0.2226
1284,0.2223
1286,0.222
1288,0.2218
1290,0.2216
1292,0.2214
1294,0.2212
1296,0.2211
1298,0.2211
1300,0.2211
1302,0.2211
1304,0.2212
1306,0.2214
1308,0.2216
1310,0.2219
1312,0.2222
1314,0.2226
1316,0.223
1318,0.2236
1320,0.2242
1322,0.2249
1324,0.2258
1326,0.2267
1328,0.2278
1330,0.229
1332,0.2304
1334,0.232
1336,0.2336
1338,0.2355
1340,0.2375
1342,0.2397
1344,0.2422
1346,0.2446
1348,0.2473
1350,0.2501
1352,0.2529
1354,0.2558
1356,0.2587
1358,0.2615
1360,0.2644
1362,0.2671
1364,0.2697
1366,0.2723
1368,0.2746
1370,0.277
1372,0.2792
1374,0.2814
1376,0.2836
1378,0.2858
1380,0.2882
1382,0.2906
1384,0.2931
1386,0.2958
1388,0.2985
1390,0.3014
1392,0.3046
1394,0.3079
1396,0.3117
1398,0.3159
1400,0.3208
1402,0.3264
1404,0.3325
1406,0.3393
1408,0.3468
1410,0.3546
1412,0.363
1414,0.3715
1416,0.3802
1418,0.3893
1420,0.3979
1422,0.4067
1424,0.4153
1426,0.4233
1428,0.4313
1430,0.4384
1432,0.4451
1434,0.4514
1436,0.4569
1438,0.4619
1440,0.4662
1442,0.4699
1444,0.4732
1446,0.4758
1448,0.478
1450,0.4798
1452,0.4813
1454,0.4825
1456,0.4835
1458,0.4843
1460,0.485
1462,0.4855
1464,0.4859
1466,0.4862
1468,0.4863
1470,0.4863
1472,0.4862
1474,0.486
1476,0.4858
1478,0.4855
1480,0.4851
1482,0.4848
1484,0.4844
1486,0.484
1488,0.4837
1490,0.4833
1492,0.4828
1494,0.4823
1496,0.4818
1498,0.4812
1500,0.4805
1502,0.4797
1504,0.4789
1506,0.4781
1508,0.4772
1510,0.4763
1512,0.4753
1514,0.4743
1516,0.4733
1518,0.4724
1520,0.4714
1522,0.4705
1524,0.4696
1526,0.4688
1528,0.4681
1530,0.4675
1532,0.4668
1534,0.4663
1536,0.4658
1538,0.4653
1540,0.4648
1542,0.4644
1544,0.464
1546,0.4636
1548,0.4632
1550,0.4629
1552,0.4626
1554,0.4623
1556,0.4621
1558,0.462
1560,0.4619
1562,0.4619
1564,0.4618
1566,0.4618
1568,0.4618
1570,0.4617
1572,0.4616
1574,0.4614
1576,0.4612
1578,0.4609
1580,0.4605
1582,0.46
1584,0.4595
1586,0.4589
1588,0.4582
1590,0.4574
1592,0.4566
1594,0.4557
1596,0.4547
1598,0.4537
1600,0.4526
1602,0.4516
1604,0.4504
1606,0.4494
1608,0.4482
1610,0.4472
1612,0.4462
1614,0.4452
1616,0.4444
1618,0.4435
1620,0.4429
1622,0.4423
1624,0.4418
1626,0.4415
1628,0.4412
1630,0.4409
1632,0.4407
1634,0.4404
1636,0.4401
1638,0.4397
1640,0.4394
1642,0.4392
1644,0.4392
1646,0.4395
1648,0.4401
1650,0.4409
1652,0.4421
1654,0.4436
1656,0.4452
1658,0.4471
1660,0.4489
1662,0.4508
1664,0.4526
1666,0.4543
1668,0.456
1670,0.4576
1672,0.4591
1674,0.4606
1676,0.462
1678,0.4634
1680,0.4646
1682,0.4659
1684,0.4674
1686,0.4694
1688,0.4721
1690,0.4751
1692,0.4782
1694,0.481
1696,0.4835
1698,0.4859
1700,0.4884
1702,0.4913
1704,0.4947
1706,0.4981
1708,0.5017
1710,0.5048
1712,0.5076
1714,0.5098
1716,0.5114
1718,0.5126
1720,0.5132
1722,0.5134
1724,0.5133
1726,0.5129
1728,0.512
1730,0.5109
1732,0.5094
1734,0.5077
1736,0.5062
1738,0.5048
1740,0.5039
1742,0.5033
1744,0.5031
1746,0.5032
1748,0.5035
1750,0.5038
1752,0.504
1754,0.504
1756,0.5038
1758,0.5034
1760,0.5028
1762,0.5019
1764,0.5008
1766,0.4995
1768,0.498
1770,0.4966
1772,0.4952
1774,0.4939
1776,0.4927
1778,0.4914
1780,0.4902
1782,0.4888
1784,0.4876
1786,0.4865
1788,0.4855
1790,0.4846
1792,0.4838
1794,0.483
1796,0.4823
1798,0.4816
1800,0.4809
1802,0.4803
1804,0.4797
1806,0.4791
1808,0.4786
1810,0.4781
1812,0.4776
1814,0.4771
1816,0.4766
1818,0.4761
1820,0.4755
1822,0.4748
1824,0.474
1826,0.473
1828,0.472
1830,0.471
1832,0.4701
1834,0.4692
1836,0.4685
1838,0.4678
1840,0.467
1842,0.4661
1844,0.4652
1846,0.4642
1848,0.4635
1850,0.4631
1852,0.4629
1854,0.4629
1856,0.4631
1858,0.4634
1860,0.4637
1862,0.4642
1864,0.4648
1866,0.4655
1868,0.4666
1870,0.4678
1872,0.4694
1874,0.4714
1876,0.4737
1878,0.4766
1880,0.4799
1882,0.4839
1884,0.4887
1886,0.4943
1888,0.501
1890,0.5086
1892,0.5175
1894,0.5273
1896,0.5381
1898,0.5499
1900,0.5622
1902,0.5752
1904,0.5879
1906,0.6007
1908,0.6128
1910,0.6242
1912,0.6347
1914,0.6441
1916,0.6526
1918,0.6598
1920,0.666
1922,0.6712
1924,0.6753
1926,0.6784
1928,0.6805
1930,0.6819
1932,0.6824
1934,0.6823
1936,0.6816
1938,0.6804
1940,0.6787
1942,0.6767
1944,0.6744
1946,0.6718
1948,0.6691
1950,0.6663
1952,0.6634
1954,0.6605
1956,0.6577
1958,0.6548
1960,0.652
1962,0.6493
1964,0.6467
1966,0.6442
1968,0.6418
1970,0.6396
1972,0.6373
1974,0.6351
1976,0.6329
1978,0.6308
1980,0.6287
1982,0.6267
1984,0.6248
1986,0.623
1988,0.6214
1990,0.6199
1992,0.6185
1994,0.6174
1996,0.6165
1998,0.6159
2000,0.6154
2002,0.6152
2004,0.6153
2006,0.6157
2008,0.6163
2010,0.6173
2012,0.6186
2014,0.6203
2016,0.6224
2018,0.625
2020,0.628
2022,0.6315
2024,0.6353
2026,0.6394
2028,0.6439
2030,0.6486
2032,0.6537
2034,0.6588
2036,0.6642
2038,0.6698
2040,0.6755
2042,0.6813
2044,0.687
2046,0.6928
2048,0.6982
2050,0.7035
2052,0.7084
2054,0.7129
2056,0.7171
2058,0.7208
2060,0.7242
2062,0.7271
2064,0.7299
2066,0.7324
2068,0.7348
2070,0.737
2072,0.7393
2074,0.7415
2076,0.7436
2078,0.7457
2080,0.7478
2082,0.7498
2084,0.7518
2086,0.7538
2088,0.7558
2090,0.7578
2092,0.7597
2094,0.7616
2096,0.7634
2098,0.7651
2100,0.7668
2102,0.7684
2104,0.77
2106,0.7714
2108,0.7728
2110,0.7741
2112,0.7755
2114,0.7767
2116,0.778
2118,0.7792
2120,0.7803
2122,0.7814
2124,0.7823
2126,0.7832
2128,0.784
2130,0.7848
2132,0.7854
2134,0.786
2136,0.7865
2138,0.7868
2140,0.7869
2142,0.7868
2144,0.7865
2146,0.786
2148,0.7852
2150,0.7844
2152,0.7835
2154,0.7824
2156,0.7812
2158,0.7799
2160,0.7784
2162,0.7768
2164,0.7752
2166,0.7735
2168,0.7716
2170,0.7697
2172,0.7677
2174,0.7656
2176,0.7633
2178,0.7611
2180,0.7588
2182,0.7564
2184,0.7539
2186,0.7514
2188,0.7488
2190,0.7464
2192,0.7438
2194,0.7414
2196,0.739
2198,0.7367
2200,0.7345
2202,0.7324
2204,0.7304
2206,0.7285
2208,0.7267
2210,0.725
2212,0.7234
2214,0.722
2216,0.7208
2218,0.7199
2220,0.7192
2222,0.7188
2224,0.7188
2226,0.7193
2228,0.7201
2230,0.7215
2232,0.7234
2234,0.7257
2236,0.7286
2238,0.7319
2240,0.7357
2242,0.7398
2244,0.7445
2246,0.7494
2248,0.7546
2250,0.7601
2252,0.7659
2254,0.7718
2256,0.7778
2258,0.7838
2260,0.7898
2262,0.7957
2264,0.8013
2266,0.8066
2268,0.8115
2270,0.8159
2272,0.8196
2274,0.8227
2276,0.8251
2278,0.8272
2280,0.829
2282,0.8307
2284,0.8325
2286,0.8345
2288,0.8367
2290,0.8393
2292,0.8423
2294,0.8458
2296,0.8496
2298,0.8537
2300,0.8578
2302,0.8617
2304,0.8652
2306,0.8679
2308,0.8698
2310,0.8705
2312,0.8701
2314,0.8687
2316,0.8664
2318,0.8644
2320,0.8629
2322,0.8624
2324,0.8627
2326,0.8635
2328,0.8645
2330,0.8656
2332,0.8666
2334,0.8676
2336,0.8686
2338,0.8697
2340,0.8707
2342,0.8719
2344,0.8728
2346,0.8735
2348,0.8737
2350,0.8731
2352,0.8716
2354,0.8695
2356,0.8668
2358,0.8642
2360,0.8616
2362,0.8594
2364,0.8574
2366,0.8556
2368,0.8541
2370,0.8528
2372,0.8519
2374,0.8515
2376,0.8513
2378,0.8514
2380,0.8517
2382,0.852
2384,0.8521
2386,0.8521
2388,0.8519
2390,0.8516
2392,0.8511
2394,0.8505
2396,0.85
2398,0.8497
2400,0.8497
2402,0.85
2404,0.8506
2406,0.8516
2408,0.8528
2410,0.8541
2412,0.8555
2414,0.8572
2416,0.8589
2418,0.8609
2420,0.863
2422,0.8653
2424,0.8678
2426,0.8705
2428,0.8732
2430,0.8762
2432,0.8795
2434,0.883
2436,0.8867
2438,0.8907
2440,0.8948
2442,0.899
2444,0.9034
2446,0.9077
2448,0.9121
2450,0.9168
2452,0.9215
2454,0.9264
2456,0.9312
2458,0.9362
2460,0.9409
2462,0.9452
2464,0.9491
2466,0.9526
2468,0.956
2470,0.9592
2472,0.9621
2474,0.965
2476,0.9678
2478,0.9704
2480,0.9728
2482,0.9749
2484,0.9768
2486,0.9785
2488,0.9798
2490,0.981
2492,0.9818
2494,0.9824
2496,0.983
2498,0.9833
