#---
#spectra_types: PA
#resources:
#  fields:
#  - name: wavelengths
#    type: number
#  - name: accp|PSME_SC58_fresh|NA.001
#    type: number
#
#---
wavelengths,accp|PSME_SC58_fresh|NA.001
400,0.983
402,1.0026
404,1.0185
406,1.0323
408,1.0435
410,1.0538
412,1.063
414,1.0717
416,1.0784
418,1.0856
420,1.0909
422,1.0965
424,1.1017
426,1.1069
428,1.1115
430,1.1154
432,1.119
434,1.1217
436,1.1242
438,1.1257
440,1.1277
442,1.1289
444,1.1296
446,1.1299
448,1.1305
450,1.1306
452,1.1308
454,1.1306
456,1.1299
458,1.1292
460,1.1285
462,1.1272
464,1.1254
466,1.123
468,1.121
470,1.1191
472,1.114
474,1.1103
476,1.1052
478,1.1001
480,1.0947
482,1.0894
484,1.0837
486,1.0777
488,1.0716
490,1.0661
492,1.0599
494,1.0532
496,1.0473
498,1.0413
500,1.0345
502,1.0278
504,1.0202
506,1.0116
508,1.0018
510,0.9919
512,0.9813
514,0.9702
516,0.9592
518,0.948
520,0.9379
522,0.93
524,0.9215
526,0.9146
528,0.9085
530,0.9037
532,0.8996
534,0.8965
536,0.8943
538,0.8932
540,0.892
542,0.8918
544,0.8923
546,0.8922
548,0.8937
550,0.8958
552,0.8977
554,0.9009
556,0.9047
558,0.9097
560,0.9155
562,0.9221
564,0.93
566,0.9379
568,0.9468
570,0.9564
572,0.9656
574,0.9751
576,0.9845
578,0.9935
580,1.002
582,1.0103
584,1.0178
586,1.0243
588,1.0314
590,1.0371
592,1.0423
594,1.0481
596,1.0531
598,1.0583
600,1.064
602,1.0694
604,1.075
606,1.0811
608,1.0869
610,1.0927
612,1.0983
614,1.103
616,1.1076
618,1.1117
620,1.1149
622,1.1177
624,1.1202
626,1.1219
628,1.1237
630,1.1252
632,1.1271
634,1.1297
636,1.1332
638,1.1384
640,1.1446
642,1.1511
644,1.1582
646,1.1649
648,1.1713
650,1.1781
652,1.1848
654,1.1915
656,1.1981
658,1.204
660,1.2095
662,1.2143
664,1.2183
666,1.2217
668,1.2241
670,1.2253
672,1.2256
674,1.2242
676,1.2208
678,1.2149
680,1.2056
682,1.1921
684,1.1719
686,1.1464
688,1.1143
690,1.0767
692,1.036
694,0.992
696,0.9473
698,0.9028
700,0.8577
702,0.8148
704,0.7731
706,0.7316
708,0.6934
710,0.6562
712,0.6197
714,0.586
716,0.5533
718,0.5217
720,0.4924
722,0.4642
724,0.4375
726,0.4129
728,0.3895
730,0.3679
732,0.3482
734,0.3295
736,0.3131
738,0.298
740,0.284
742,0.2721
744,0.2611
746,0.2513
748,0.243
750,0.2355
752,0.229
754,0.2235
756,0.2186
758,0.2144
760,0.2109
762,0.2077
764,0.2049
766,0.2024
768,0.2001
770,0.198
772,0.196
774,0.1942
776,0.1928
778,0.1916
780,0.1906
782,0.1897
784,0.1889
786,0.1882
788,0.1874
790,0.1867
792,0.1859
794,0.1853
796,0.1846
798,0.184
800,0.1834
802,0.1828
804,0.1822
806,0.1817
808,0.1811
810,0.1806
812,0.1801
814,0.1796
816,0.1791
818,0.1787
820,0.1783
822,0.1779
824,0.1775
826,0.1772
828,0.1768
830,0.1765
832,0.1763
834,0.1759
836,0.1757
838,0.1753
840,0.175
842,0.1747
844,0.1743
846,0.174
848,0.1736
850,0.1733
852,0.1729
854,0.1726
856,0.1722
858,0.1719
860,0.1716
862,0.1713
864,0.1711
866,0.1708
868,0.1705
870,0.1703
872,0.1701
874,0.1698
876,0.1696
878,0.1694
880,0.1693
882,0.1691
884,0.1689
886,0.1688
888,0.1688
890,0.1687
892,0.1686
894,0.1686
896,0.1686
898,0.1686
900,0.1685
902,0.1686
904,0.1686
906,0.1686
908,0.1687
910,0.1687
912,0.1688
914,0.1689
916,0.1691
918,0.1693
920,0.1695
922,0.1699
924,0.1703
926,0.1708
928,0.1714
930,0.1722
932,0.173
934,0.1739
936,0.175
938,0.1762
940,0.1775
942,0.179
944,0.1807
946,0.1827
948,0.1849
950,0.1873
952,0.1899
954,0.1926
956,0.1951
958,0.1976
960,0.1998
962,0.2017
964,0.2033
966,0.2046
968,0.2056
970,0.2064
972,0.207
974,0.2075
976,0.2078
978,0.208
980,0.208
982,0.2078
984,0.2075
986,0.2071
988,0.2065
990,0.2058
992,0.205
994,0.2042
996,0.2032
998,0.2022
1000,0.2011
1002,0.1999
1004,0.1987
1006,0.1975
1008,0.1963
1010,0.195
1012,0.1937
1014,0.1924
1016,0.1911
1018,0.1898
1020,0.1885
1022,0.1872
1024,0.1859
1026,0.1846
1028,0.1834
1030,0.1821
1032,0.181
1034,0.1798
1036,0.1787
1038,0.1777
1040,0.1767
1042,0.1757
1044,0.1748
1046,0.1739
1048,0.1731
1050,0.1724
1052,0.1717
1054,0.1711
1056,0.1706
1058,0.1701
1060,0.1697
1062,0.1693
1064,0.1689
1066,0.1687
1068,0.1685
1070,0.1683
1072,0.1683
1074,0.1683
1076,0.1684
1078,0.1685
1080,0.1688
1082,0.169
1084,0.1694
1086,0.1698
1088,0.1704
1090,0.1709
1092,0.1715
1094,0.1722
1096,0.173
1098,0.1737
1100,0.1755
1102,0.1765
1104,0.1775
1106,0.1786
1108,0.1797
1110,0.1809
1112,0.1822
1114,0.1836
1116,0.1851
1118,0.1868
1120,0.1887
1122,0.1909
1124,0.1935
1126,0.1965
1128,0.2
1130,0.2041
1132,0.2087
1134,0.214
1136,0.22
1138,0.2263
1140,0.2331
1142,0.2399
1144,0.2468
1146,0.2537
1148,0.26
1150,0.266
1152,0.2715
1154,0.2764
1156,0.2807
1158,0.2844
1160,0.2876
1162,0.2904
1164,0.2928
1166,0.2949
1168,0.2968
1170,0.2985
1172,0.3
1174,0.3014
1176,0.3029
1178,0.3043
1180,0.3058
1182,0.3073
1184,0.3089
1186,0.3103
1188,0.3118
1190,0.3132
1192,0.3144
1194,0.3154
1196,0.3163
1198,0.3169
1200,0.3173
1202,0.3175
1204,0.3175
1206,0.3173
1208,0.3169
1210,0.3164
1212,0.3157
1214,0.3149
1216,0.314
1218,0.313
1220,0.3119
1222,0.3108
1224,0.3098
1226,0.3087
1228,0.3077
1230,0.3067
1232,0.3057
1234,0.3049
1236,0.3041
1238,0.3033
1240,0.3025
1242,0.3018
1244,0.3012
1246,0.3006
1248,0.3
1250,0.2995
1252,0.299
1254,0.2986
1256,0.2983
1258,0.298
1260,0.2978
1262,0.2977
1264,0.2977
1266,0.2977
1268,0.2978
1270,0.298
1272,0.2983
1274,0.2987
1276,0.2993
1278,0.2999
1280,0.3006
1282,0.3014
1284,0.3024
1286,0.3035
1288,0.3047
1290,0.3061
1292,0.3077
1294,0.3094
1296,0.3114
1298,0.3135
1300,0.3157
1302,0.3183
1304,0.3209
1306,0.3239
1308,0.327
1310,0.3304
1312,0.334
1314,0.3378
1316,0.3419
1318,0.3463
1320,0.3507
1322,0.3555
1324,0.3605
1326,0.3656
1328,0.371
1330,0.3764
1332,0.382
1334,0.3877
1336,0.3932
1338,0.3988
1340,0.4043
1342,0.4097
1344,0.415
1346,0.42
1348,0.4249
1350,0.4297
1352,0.4343
1354,0.4389
1356,0.4434
1358,0.4479
1360,0.4527
1362,0.4574
1364,0.4627
1366,0.4685
1368,0.4747
1370,0.4821
1372,0.4901
1374,0.4995
1376,0.5105
1378,0.5225
1380,0.5367
1382,0.5527
1384,0.5702
1386,0.5901
1388,0.6106
1390,0.633
1392,0.6567
1394,0.6803
1396,0.7051
1398,0.7293
1400,0.753
1402,0.7768
1404,0.7984
1406,0.8195
1408,0.8393
1410,0.8572
1412,0.8743
1414,0.8894
1416,0.9033
1418,0.9162
1420,0.9274
1422,0.9379
1424,0.9473
1426,0.9556
1428,0.9634
1430,0.97
1432,0.9761
1434,0.9814
1436,0.9859
1438,0.99
1440,0.9934
1442,0.9963
1444,0.9987
1446,1.0007
1448,1.0023
1450,1.0035
1452,1.0044
1454,1.0051
1456,1.0053
1458,1.0052
1460,1.0046
1462,1.0035
1464,1.0018
1466,0.9996
1468,0.9969
1470,0.9935
1472,0.9898
1474,0.9855
1476,0.9809
1478,0.976
1480,0.9707
1482,0.9655
1484,0.96
1486,0.9544
1488,0.9488
1490,0.9428
1492,0.937
1494,0.9311
1496,0.9249
1498,0.9188
1500,0.9124
1502,0.9061
1504,0.8997
1506,0.8931
1508,0.8868
1510,0.8802
1512,0.8738
1514,0.8676
1516,0.8611
1518,0.8552
1520,0.8491
1522,0.8432
1524,0.8375
1526,0.8318
1528,0.8264
1530,0.821
1532,0.8156
1534,0.8106
1536,0.8054
1538,0.8005
1540,0.7957
1542,0.7908
1544,0.7862
1546,0.7816
1548,0.7771
1550,0.7727
1552,0.7683
1554,0.7642
1556,0.76
1558,0.756
1560,0.7521
1562,0.7482
1564,0.7445
1566,0.7409
1568,0.7372
1570,0.7338
1572,0.7302
1574,0.7269
1576,0.7235
1578,0.7202
1580,0.717
1582,0.7137
1584,0.7106
1586,0.7075
1588,0.7044
1590,0.7015
1592,0.6985
1594,0.6956
1596,0.6928
1598,0.6899
1600,0.6872
1602,0.6844
1604,0.6818
1606,0.6792
1608,0.6766
1610,0.6742
1612,0.6717
1614,0.6694
1616,0.6672
1618,0.665
1620,0.6629
1622,0.6609
1624,0.659
1626,0.6572
1628,0.6554
1630,0.6538
1632,0.6521
1634,0.6506
1636,0.649
1638,0.6475
1640,0.6461
1642,0.6448
1644,0.6436
1646,0.6426
1648,0.6418
1650,0.6412
1652,0.6408
1654,0.6406
1656,0.6404
1658,0.6404
1660,0.6404
1662,0.6405
1664,0.6405
1666,0.6404
1668,0.6404
1670,0.6403
1672,0.6402
1674,0.6401
1676,0.64
1678,0.6398
1680,0.6396
1682,0.6394
1684,0.6394
1686,0.64
1688,0.6411
1690,0.6426
1692,0.6442
1694,0.6458
1696,0.6471
1698,0.6486
1700,0.6503
1702,0.6526
1704,0.6553
1706,0.6581
1708,0.661
1710,0.6636
1712,0.666
1714,0.6681
1716,0.67
1718,0.6716
1720,0.6729
1722,0.6742
1724,0.6753
1726,0.6763
1728,0.6771
1730,0.6779
1732,0.6786
1734,0.6794
1736,0.6803
1738,0.6815
1740,0.6829
1742,0.6848
1744,0.687
1746,0.6895
1748,0.6924
1750,0.6953
1752,0.6984
1754,0.7013
1756,0.7043
1758,0.707
1760,0.7096
1762,0.712
1764,0.714
1766,0.7159
1768,0.7175
1770,0.7189
1772,0.7202
1774,0.7212
1776,0.7221
1778,0.7228
1780,0.7234
1782,0.7239
1784,0.7243
1786,0.7247
1788,0.7249
1790,0.7251
1792,0.725
1794,0.7249
1796,0.7246
1798,0.7242
1800,0.7237
1802,0.7231
1804,0.7225
1806,0.7219
1808,0.7213
1810,0.7208
1812,0.7203
1814,0.7198
1816,0.7194
1818,0.7191
1820,0.7188
1822,0.7185
1824,0.7184
1826,0.7182
1828,0.7182
1830,0.7184
1832,0.7189
1834,0.7199
1836,0.7212
1838,0.723
1840,0.7251
1842,0.7275
1844,0.7304
1846,0.7339
1848,0.7383
1850,0.7437
1852,0.7502
1854,0.758
1856,0.7667
1858,0.777
1860,0.7885
1862,0.8015
1864,0.8164
1866,0.8328
1868,0.8518
1870,0.8726
1872,0.8961
1874,0.9218
1876,0.9496
1878,0.98
1880,1.0114
1882,1.0459
1884,1.0811
1886,1.1178
1888,1.1554
1890,1.1924
1892,1.2295
1894,1.2637
1896,1.2966
1898,1.3266
1900,1.3538
1902,1.3783
1904,1.3994
1906,1.4183
1908,1.434
1910,1.4481
1912,1.4599
1914,1.47
1916,1.4788
1918,1.486
1920,1.4922
1922,1.4971
1924,1.501
1926,1.5042
1928,1.5061
1930,1.5073
1932,1.5077
1934,1.5074
1936,1.5064
1938,1.5048
1940,1.5027
1942,1.5001
1944,1.497
1946,1.4936
1948,1.4895
1950,1.4854
1952,1.4809
1954,1.4761
1956,1.4711
1958,1.4657
1960,1.4603
1962,1.4547
1964,1.4491
1966,1.4433
1968,1.4374
1970,1.4315
1972,1.4253
1974,1.4192
1976,1.4127
1978,1.4064
1980,1.3998
1982,1.3932
1984,1.3867
1986,1.3799
1988,1.3734
1990,1.3667
1992,1.3602
1994,1.3536
1996,1.3472
1998,1.3407
2000,1.3342
2002,1.328
2004,1.3216
2006,1.3155
2008,1.3093
2010,1.3033
2012,1.2973
2014,1.2914
2016,1.2858
2018,1.2802
2020,1.2749
2022,1.2697
2024,1.2647
2026,1.2597
2028,1.2549
2030,1.2503
2032,1.2457
2034,1.2413
2036,1.237
2038,1.2329
2040,1.2289
2042,1.2251
2044,1.2214
2046,1.2178
2048,1.2142
2050,1.2106
2052,1.2071
2054,1.2035
2056,1.1999
2058,1.1963
2060,1.1927
2062,1.189
2064,1.1854
2066,1.1818
2068,1.1782
2070,1.1747
2072,1.1711
2074,1.1676
2076,1.1642
2078,1.1606
2080,1.1572
2082,1.1538
2084,1.1505
2086,1.1471
2088,1.1439
2090,1.1406
2092,1.1374
2094,1.1341
2096,1.131
2098,1.1279
2100,1.1248
2102,1.1218
2104,1.1187
2106,1.1157
2108,1.1128
2110,1.1099
2112,1.107
2114,1.1042
2116,1.1015
2118,1.0988
2120,1.0962
2122,1.0936
2124,1.091
2126,1.0885
2128,1.0859
2130,1.0835
2132,1.081
2134,1.0785
2136,1.0761
2138,1.0736
2140,1.0712
2142,1.0686
2144,1.0661
2146,1.0635
2148,1.0608
2150,1.0582
2152,1.0556
2154,1.0529
2156,1.0503
2158,1.0477
2160,1.0451
2162,1.0424
2164,1.0399
2166,1.0373
2168,1.0348
2170,1.0324
2172,1.03
2174,1.0275
2176,1.0251
2178,1.0226
2180,1.0202
2182,1.0177
2184,1.0153
2186,1.0129
2188,1.0105
2190,1.0082
2192,1.006
2194,1.0039
2196,1.0018
2198,0.9999
2200,0.9981
2202,0.9963
2204,0.9947
2206,0.9931
2208,0.9917
2210,0.9904
2212,0.9894
2214,0.9884
2216,0.9877
2218,0.9872
2220,0.9869
2222,0.9869
2224,0.987
2226,0.9875
2228,0.9883
2230,0.9894
2232,0.9909
2234,0.9926
2236,0.9946
2238,0.997
2240,0.9995
2242,1.0024
2244,1.0055
2246,1.009
2248,1.0127
2250,1.0167
2252,1.021
2254,1.0254
2256,1.03
2258,1.0346
2260,1.0392
2262,1.0437
2264,1.0482
2266,1.0525
2268,1.0566
2270,1.0605
2272,1.064
2274,1.0673
2276,1.07
2278,1.0726
2280,1.0748
2282,1.0771
2284,1.0794
2286,1.0818
2288,1.0846
2290,1.0878
2292,1.0914
2294,1.0955
2296,1.1002
2298,1.1053
2300,1.1105
2302,1.1159
2304,1.1209
2306,1.1258
2308,1.13
2310,1.1339
2312,1.1368
2314,1.1392
2316,1.1413
2318,1.1433
2320,1.1456
2322,1.1485
2324,1.1518
2326,1.1553
2328,1.159
2330,1.1627
2332,1.1665
2334,1.1703
2336,1.174
2338,1.1777
2340,1.1814
2342,1.1852
2344,1.1889
2346,1.1926
2348,1.1958
2350,1.1987
2352,1.2011
2354,1.2032
2356,1.2051
2358,1.2069
2360,1.2088
2362,1.211
2364,1.2132
2366,1.2158
2368,1.2186
2370,1.2218
2372,1.2256
2374,1.2297
2376,1.2341
2378,1.2385
2380,1.2429
2382,1.2474
2384,1.2516
2386,1.2556
2388,1.2593
2390,1.2628
2392,1.2662
2394,1.2695
2396,1.2728
2398,1.2764
2400,1.2803
2402,1.2845
2404,1.2889
2406,1.2935
2408,1.2984
2410,1.303
2412,1.308
2414,1.3126
2416,1.3175
2418,1.3221
2420,1.3268
2422,1.3316
2424,1.3362
2426,1.3408
2428,1.3456
2430,1.3501
2432,1.3549
2434,1.3593
2436,1.3641
2438,1.3685
2440,1.3732
2442,1.3778
2444,1.3823
2446,1.3869
2448,1.3911
2450,1.3956
2452,1.4001
2454,1.4046
2456,1.4089
2458,1.4135
2460,1.4177
2462,1.4222
2464,1.4264
2466,1.4305
2468,1.4347
2470,1.4387
2472,1.4426
2474,1.4468
2476,1.4502
2478,1.4543
2480,1.4578
2482,1.461
2484,1.4641
2486,1.467
2488,1.4697
2490,1.472
2492,1.4745
2494,1.4766
2496,1.4786
2498,1.48
