#---
#spectra_types: R
#resources:
#  fields:
#  - name: wavelengths
#    type: number
#  - name: accp|JR228|1992.001
#    type: number
#
#---
wavelengths,accp|JR228|1992.001
400,0.076
402,0.073
404,0.07
406,0.068
408,0.066
410,0.064
412,0.063
414,0.062
416,0.061
418,0.06
420,0.059
422,0.059
424,0.058
426,0.058
428,0.057
430,0.057
432,0.057
434,0.057
436,0.057
438,0.057
440,0.056
442,0.057
444,0.057
446,0.057
448,0.057
450,0.057
452,0.057
454,0.058
456,0.058
458,0.058
460,0.058
462,0.058
464,0.058
466,0.059
468,0.059
470,0.06
472,0.06
474,0.061
476,0.061
478,0.062
480,0.063
482,0.064
484,0.064
486,0.065
488,0.066
490,0.067
492,0.068
494,0.069
496,0.07
498,0.072
500,0.073
502,0.075
504,0.077
506,0.08
508,0.083
510,0.086
512,0.09
514,0.094
516,0.099
518,0.103
520,0.108
522,0.113
524,0.118
526,0.122
528,0.126
530,0.13
532,0.134
534,0.137
536,0.14
538,0.142
540,0.144
542,0.145
544,0.146
546,0.147
548,0.147
550,0.147
552,0.147
554,0.146
556,0.145
558,0.144
560,0.142
562,0.14
564,0.137
566,0.134
568,0.131
570,0.127
572,0.124
574,0.121
576,0.118
578,0.115
580,0.112
582,0.109
584,0.107
586,0.105
588,0.103
590,0.102
592,0.1
594,0.099
596,0.097
598,0.096
600,0.094
602,0.093
604,0.091
606,0.089
608,0.088
610,0.086
612,0.085
614,0.083
616,0.082
618,0.081
620,0.08
622,0.079
624,0.078
626,0.077
628,0.077
630,0.076
632,0.075
634,0.073
636,0.072
638,0.071
640,0.069
642,0.067
644,0.066
646,0.064
648,0.063
650,0.061
652,0.06
654,0.058
656,0.057
658,0.055
660,0.054
662,0.053
664,0.052
666,0.051
668,0.051
670,0.05
672,0.05
674,0.05
676,0.051
678,0.052
680,0.055
682,0.058
684,0.063
686,0.07
688,0.079
690,0.09
692,0.104
694,0.119
696,0.136
698,0.153
700,0.173
702,0.192
704,0.211
706,0.231
708,0.25
710,0.268
712,0.287
714,0.303
716,0.32
718,0.335
720,0.35
722,0.363
724,0.376
726,0.388
728,0.398
730,0.408
732,0.417
734,0.425
736,0.432
738,0.438
740,0.443
742,0.448
744,0.452
746,0.455
748,0.458
750,0.46
752,0.462
754,0.464
756,0.465
758,0.466
760,0.467
762,0.468
764,0.469
766,0.47
768,0.47
770,0.471
772,0.472
774,0.472
776,0.472
778,0.472
780,0.472
782,0.472
784,0.472
786,0.472
788,0.472
790,0.472
792,0.472
794,0.472
796,0.472
798,0.472
800,0.472
802,0.472
804,0.472
806,0.472
808,0.472
810,0.472
812,0.472
814,0.472
816,0.472
818,0.472
820,0.472
822,0.472
824,0.471
826,0.471
828,0.471
830,0.471
832,0.471
834,0.471
836,0.471
838,0.471
840,0.47
842,0.47
844,0.47
846,0.47
848,0.47
850,0.47
852,0.47
854,0.47
856,0.47
858,0.47
860,0.469
862,0.469
864,0.469
866,0.469
868,0.469
870,0.469
872,0.468
874,0.468
876,0.468
878,0.468
880,0.468
882,0.468
884,0.467
886,0.467
888,0.467
890,0.467
892,0.467
894,0.466
896,0.466
898,0.466
900,0.466
902,0.465
904,0.465
906,0.465
908,0.465
910,0.465
912,0.464
914,0.464
916,0.464
918,0.464
920,0.463
922,0.463
924,0.463
926,0.463
928,0.462
930,0.462
932,0.462
934,0.461
936,0.461
938,0.461
940,0.46
942,0.46
944,0.459
946,0.459
948,0.458
950,0.457
952,0.457
954,0.456
956,0.455
958,0.454
960,0.454
962,0.453
964,0.452
966,0.452
968,0.451
970,0.451
972,0.451
974,0.45
976,0.45
978,0.45
980,0.45
982,0.449
984,0.449
986,0.449
988,0.449
990,0.449
992,0.449
994,0.449
996,0.449
998,0.449
1000,0.449
1002,0.449
1004,0.449
1006,0.449
1008,0.45
1010,0.45
1012,0.45
1014,0.45
1016,0.45
1018,0.45
1020,0.45
1022,0.45
1024,0.451
1026,0.451
1028,0.451
1030,0.451
1032,0.451
1034,0.451
1036,0.451
1038,0.451
1040,0.451
1042,0.451
1044,0.451
1046,0.451
1048,0.451
1050,0.451
1052,0.451
1054,0.451
1056,0.451
1058,0.451
1060,0.451
1062,0.451
1064,0.451
1066,0.451
1068,0.451
1070,0.451
1072,0.451
1074,0.451
1076,0.451
1078,0.451
1080,0.45
1082,0.45
1084,0.45
1086,0.45
1088,0.45
1090,0.449
1092,0.449
1094,0.449
1096,0.449
1098,0.449
1100,0.469
1102,0.469
1104,0.469
1106,0.468
1108,0.468
1110,0.468
1112,0.467
1114,0.467
1116,0.466
1118,0.465
1120,0.465
1122,0.464
1124,0.463
1126,0.463
1128,0.462
1130,0.461
1132,0.459
1134,0.458
1136,0.456
1138,0.455
1140,0.453
1142,0.451
1144,0.449
1146,0.447
1148,0.445
1150,0.444
1152,0.442
1154,0.44
1156,0.439
1158,0.438
1160,0.437
1162,0.436
1164,0.435
1166,0.435
1168,0.434
1170,0.433
1172,0.433
1174,0.432
1176,0.431
1178,0.431
1180,0.43
1182,0.429
1184,0.428
1186,0.428
1188,0.427
1190,0.427
1192,0.426
1194,0.426
1196,0.426
1198,0.426
1200,0.426
1202,0.426
1204,0.426
1206,0.426
1208,0.426
1210,0.426
1212,0.427
1214,0.427
1216,0.428
1218,0.428
1220,0.429
1222,0.429
1224,0.43
1226,0.43
1228,0.431
1230,0.431
1232,0.432
1234,0.432
1236,0.432
1238,0.433
1240,0.433
1242,0.433
1244,0.433
1246,0.434
1248,0.434
1250,0.434
1252,0.434
1254,0.434
1256,0.434
1258,0.434
1260,0.435
1262,0.435
1264,0.435
1266,0.434
1268,0.434
1270,0.434
1272,0.434
1274,0.434
1276,0.434
1278,0.434
1280,0.433
1282,0.433
1284,0.433
1286,0.433
1288,0.432
1290,0.432
1292,0.431
1294,0.431
1296,0.431
1298,0.43
1300,0.429
1302,0.428
1304,0.428
1306,0.427
1308,0.426
1310,0.425
1312,0.424
1314,0.423
1316,0.421
1318,0.42
1320,0.419
1322,0.417
1324,0.415
1326,0.414
1328,0.412
1330,0.41
1332,0.408
1334,0.406
1336,0.404
1338,0.402
1340,0.4
1342,0.398
1344,0.396
1346,0.394
1348,0.392
1350,0.39
1352,0.388
1354,0.386
1356,0.384
1358,0.382
1360,0.38
1362,0.378
1364,0.376
1366,0.374
1368,0.371
1370,0.368
1372,0.365
1374,0.361
1376,0.357
1378,0.352
1380,0.345
1382,0.339
1384,0.331
1386,0.322
1388,0.313
1390,0.304
1392,0.294
1394,0.283
1396,0.273
1398,0.263
1400,0.253
1402,0.243
1404,0.234
1406,0.226
1408,0.218
1410,0.211
1412,0.204
1414,0.199
1416,0.194
1418,0.189
1420,0.185
1422,0.182
1424,0.178
1426,0.176
1428,0.173
1430,0.171
1432,0.169
1434,0.168
1436,0.166
1438,0.165
1440,0.164
1442,0.163
1444,0.163
1446,0.162
1448,0.162
1450,0.162
1452,0.162
1454,0.162
1456,0.162
1458,0.162
1460,0.163
1462,0.163
1464,0.164
1466,0.165
1468,0.166
1470,0.168
1472,0.169
1474,0.171
1476,0.173
1478,0.175
1480,0.177
1482,0.179
1484,0.181
1486,0.183
1488,0.185
1490,0.188
1492,0.19
1494,0.192
1496,0.195
1498,0.197
1500,0.2
1502,0.202
1504,0.205
1506,0.207
1508,0.21
1510,0.213
1512,0.215
1514,0.218
1516,0.22
1518,0.223
1520,0.225
1522,0.228
1524,0.23
1526,0.233
1528,0.235
1530,0.237
1532,0.24
1534,0.242
1536,0.244
1538,0.246
1540,0.249
1542,0.251
1544,0.253
1546,0.255
1548,0.257
1550,0.259
1552,0.261
1554,0.262
1556,0.264
1558,0.266
1560,0.268
1562,0.27
1564,0.271
1566,0.273
1568,0.275
1570,0.276
1572,0.278
1574,0.28
1576,0.281
1578,0.283
1580,0.285
1582,0.286
1584,0.288
1586,0.289
1588,0.291
1590,0.292
1592,0.294
1594,0.295
1596,0.296
1598,0.298
1600,0.299
1602,0.301
1604,0.302
1606,0.303
1608,0.305
1610,0.306
1612,0.307
1614,0.308
1616,0.31
1618,0.311
1620,0.312
1622,0.313
1624,0.313
1626,0.314
1628,0.315
1630,0.316
1632,0.316
1634,0.317
1636,0.318
1638,0.319
1640,0.319
1642,0.32
1644,0.321
1646,0.322
1648,0.322
1650,0.322
1652,0.323
1654,0.323
1656,0.323
1658,0.323
1660,0.323
1662,0.323
1664,0.322
1666,0.322
1668,0.322
1670,0.322
1672,0.321
1674,0.32
1676,0.319
1678,0.318
1680,0.317
1682,0.316
1684,0.315
1686,0.314
1688,0.312
1690,0.311
1692,0.31
1694,0.308
1696,0.307
1698,0.306
1700,0.305
1702,0.304
1704,0.303
1706,0.302
1708,0.301
1710,0.3
1712,0.299
1714,0.299
1716,0.298
1718,0.298
1720,0.297
1722,0.297
1724,0.296
1726,0.296
1728,0.296
1730,0.296
1732,0.296
1734,0.296
1736,0.296
1738,0.296
1740,0.296
1742,0.296
1744,0.295
1746,0.294
1748,0.293
1750,0.292
1752,0.292
1754,0.291
1756,0.29
1758,0.289
1760,0.289
1762,0.288
1764,0.288
1766,0.288
1768,0.288
1770,0.287
1772,0.287
1774,0.287
1776,0.287
1778,0.287
1780,0.287
1782,0.288
1784,0.288
1786,0.289
1788,0.289
1790,0.289
1792,0.29
1794,0.29
1796,0.291
1798,0.292
1800,0.292
1802,0.293
1804,0.293
1806,0.294
1808,0.294
1810,0.295
1812,0.295
1814,0.296
1816,0.296
1818,0.296
1820,0.296
1822,0.297
1824,0.297
1826,0.297
1828,0.297
1830,0.297
1832,0.297
1834,0.296
1836,0.296
1838,0.295
1840,0.295
1842,0.294
1844,0.292
1846,0.291
1848,0.289
1850,0.287
1852,0.284
1854,0.281
1856,0.277
1858,0.272
1860,0.267
1862,0.262
1864,0.255
1866,0.248
1868,0.24
1870,0.23
1872,0.22
1874,0.209
1876,0.198
1878,0.186
1880,0.174
1882,0.161
1884,0.149
1886,0.137
1888,0.125
1890,0.114
1892,0.104
1894,0.094
1896,0.086
1898,0.079
1900,0.073
1902,0.068
1904,0.064
1906,0.061
1908,0.058
1910,0.055
1912,0.053
1914,0.052
1916,0.051
1918,0.049
1920,0.049
1922,0.048
1924,0.047
1926,0.047
1928,0.047
1930,0.046
1932,0.046
1934,0.046
1936,0.047
1938,0.047
1940,0.047
1942,0.048
1944,0.048
1946,0.049
1948,0.049
1950,0.05
1952,0.051
1954,0.052
1956,0.053
1958,0.054
1960,0.055
1962,0.056
1964,0.057
1966,0.058
1968,0.059
1970,0.06
1972,0.061
1974,0.063
1976,0.064
1978,0.065
1980,0.067
1982,0.068
1984,0.069
1986,0.071
1988,0.072
1990,0.074
1992,0.075
1994,0.077
1996,0.078
1998,0.08
2000,0.081
2002,0.083
2004,0.084
2006,0.086
2008,0.087
2010,0.089
2012,0.09
2014,0.092
2016,0.093
2018,0.095
2020,0.096
2022,0.098
2024,0.099
2026,0.1
2028,0.101
2030,0.103
2032,0.104
2034,0.105
2036,0.106
2038,0.107
2040,0.108
2042,0.109
2044,0.11
2046,0.111
2048,0.112
2050,0.113
2052,0.114
2054,0.115
2056,0.116
2058,0.117
2060,0.118
2062,0.119
2064,0.12
2066,0.121
2068,0.122
2070,0.123
2072,0.124
2074,0.125
2076,0.126
2078,0.127
2080,0.128
2082,0.129
2084,0.13
2086,0.13
2088,0.131
2090,0.132
2092,0.133
2094,0.134
2096,0.135
2098,0.136
2100,0.137
2102,0.138
2104,0.139
2106,0.14
2108,0.14
2110,0.141
2112,0.142
2114,0.143
2116,0.144
2118,0.145
2120,0.146
2122,0.146
2124,0.147
2126,0.148
2128,0.149
2130,0.149
2132,0.15
2134,0.151
2136,0.152
2138,0.153
2140,0.153
2142,0.154
2144,0.155
2146,0.155
2148,0.156
2150,0.157
2152,0.158
2154,0.158
2156,0.159
2158,0.16
2160,0.161
2162,0.162
2164,0.162
2166,0.163
2168,0.164
2170,0.165
2172,0.165
2174,0.166
2176,0.167
2178,0.168
2180,0.168
2182,0.169
2184,0.17
2186,0.171
2188,0.172
2190,0.172
2192,0.173
2194,0.174
2196,0.174
2198,0.175
2200,0.175
2202,0.176
2204,0.176
2206,0.176
2208,0.176
2210,0.176
2212,0.176
2214,0.176
2216,0.176
2218,0.176
2220,0.175
2222,0.175
2224,0.174
2226,0.174
2228,0.173
2230,0.172
2232,0.171
2234,0.17
2236,0.169
2238,0.167
2240,0.166
2242,0.164
2244,0.162
2246,0.161
2248,0.159
2250,0.157
2252,0.155
2254,0.153
2256,0.151
2258,0.148
2260,0.146
2262,0.144
2264,0.142
2266,0.14
2268,0.138
2270,0.136
2272,0.135
2274,0.134
2276,0.132
2278,0.131
2280,0.13
2282,0.129
2284,0.128
2286,0.127
2288,0.126
2290,0.124
2292,0.123
2294,0.121
2296,0.119
2298,0.117
2300,0.116
2302,0.115
2304,0.113
2306,0.112
2308,0.112
2310,0.111
2312,0.111
2314,0.111
2316,0.111
2318,0.111
2320,0.111
2322,0.111
2324,0.111
2326,0.11
2328,0.109
2330,0.109
2332,0.108
2334,0.107
2336,0.106
2338,0.105
2340,0.104
2342,0.103
2344,0.102
2346,0.101
2348,0.101
2350,0.1
2352,0.1
2354,0.099
2356,0.099
2358,0.098
2360,0.098
2362,0.097
2364,0.097
2366,0.096
2368,0.096
2370,0.095
2372,0.094
2374,0.094
2376,0.093
2378,0.093
2380,0.092
2382,0.091
2384,0.09
2386,0.09
2388,0.089
2390,0.088
2392,0.087
2394,0.087
2396,0.086
2398,0.085
2400,0.084
2402,0.083
2404,0.082
2406,0.082
2408,0.081
2410,0.08
2412,0.079
2414,0.078
2416,0.077
2418,0.077
2420,0.076
2422,0.075
2424,0.074
2426,0.073
2428,0.072
2430,0.072
2432,0.071
2434,0.07
2436,0.069
2438,0.068
2440,0.067
2442,0.066
2444,0.065
2446,0.064
2448,0.064
2450,0.063
2452,0.062
2454,0.061
2456,0.06
2458,0.059
2460,0.058
2462,0.058
2464,0.057
2466,0.056
2468,0.056
2470,0.055
2472,0.054
2474,0.054
2476,0.054
2478,0.053
2480,0.053
2482,0.052
2484,0.052
2486,0.051
2488,0.051
2490,0.051
2492,0.05
2494,0.05
2496,0.05
2498,0.05
