#---
#spectra_types: PA
#resources:
#  fields:
#  - name: wavelengths
#    type: number
#  - name: accp|PSME_SC46_powder|NA.001
#    type: number
#
#---
wavelengths,accp|PSME_SC46_powder|NA.001
400,0.7439
402,0.7595
404,0.772
406,0.7828
408,0.7924
410,0.8015
412,0.8089
414,0.8161
416,0.8234
418,0.8297
420,0.8381
422,0.844
424,0.8494
426,0.8553
428,0.8611
430,0.8652
432,0.8692
434,0.8733
436,0.8762
438,0.8793
440,0.88
442,0.8812
444,0.8814
446,0.8809
448,0.881
450,0.8808
452,0.8808
454,0.8804
456,0.8802
458,0.88
460,0.879
462,0.8784
464,0.8771
466,0.8751
468,0.8727
470,0.8701
472,0.8663
474,0.8632
476,0.8586
478,0.8535
480,0.8486
482,0.843
484,0.8384
486,0.8322
488,0.8258
490,0.818
492,0.8105
494,0.8028
496,0.7929
498,0.7812
500,0.7686
502,0.7547
504,0.739
506,0.7211
508,0.7026
510,0.6834
512,0.667
514,0.6446
516,0.624
518,0.6053
520,0.5879
522,0.5728
524,0.559
526,0.5484
528,0.5395
530,0.5329
532,0.5278
534,0.5241
536,0.5217
538,0.5188
540,0.5158
542,0.5134
544,0.5098
546,0.5061
548,0.5026
550,0.4988
552,0.4961
554,0.4936
556,0.4924
558,0.4922
560,0.4939
562,0.4956
564,0.4982
566,0.5022
568,0.5064
570,0.5107
572,0.5157
574,0.5209
576,0.5257
578,0.5309
580,0.5359
582,0.5406
584,0.5454
586,0.5503
588,0.5557
590,0.5605
592,0.5657
594,0.5713
596,0.5768
598,0.583
600,0.5894
602,0.5955
604,0.6016
606,0.6076
608,0.6135
610,0.6187
612,0.6233
614,0.628
616,0.6311
618,0.634
620,0.6361
622,0.6382
624,0.64
626,0.6419
628,0.6443
630,0.6475
632,0.6518
634,0.6574
636,0.6648
638,0.6733
640,0.6831
642,0.6939
644,0.7053
646,0.7163
648,0.7284
650,0.7406
652,0.7538
654,0.7677
656,0.7813
658,0.7952
660,0.8095
662,0.8231
664,0.8358
666,0.8468
668,0.8552
670,0.8601
672,0.8615
674,0.857
676,0.8466
678,0.8304
680,0.8064
682,0.7748
684,0.7376
686,0.6949
688,0.6476
690,0.6003
692,0.5524
694,0.5051
696,0.4617
698,0.4207
700,0.3833
702,0.3499
704,0.3201
706,0.2937
708,0.271
710,0.2505
712,0.2329
714,0.2176
716,0.2038
718,0.1923
720,0.182
722,0.1726
724,0.1648
726,0.1576
728,0.1512
730,0.1457
732,0.1408
734,0.1363
736,0.1324
738,0.1289
740,0.1258
742,0.123
744,0.1205
746,0.1183
748,0.1164
750,0.1146
752,0.113
754,0.1115
756,0.1101
758,0.1088
760,0.1076
762,0.1064
764,0.1054
766,0.1044
768,0.1034
770,0.1026
772,0.1018
774,0.1012
776,0.1008
778,0.1003
780,0.0999
782,0.0995
784,0.099
786,0.0986
788,0.0981
790,0.0976
792,0.0972
794,0.0968
796,0.0964
798,0.096
800,0.0956
802,0.0952
804,0.0948
806,0.0945
808,0.0941
810,0.0937
812,0.0933
814,0.0929
816,0.0926
818,0.0922
820,0.0918
822,0.0914
824,0.0909
826,0.0906
828,0.0902
830,0.0898
832,0.0893
834,0.0889
836,0.0885
838,0.0881
840,0.0877
842,0.0873
844,0.087
846,0.0866
848,0.0863
850,0.086
852,0.0856
854,0.0853
856,0.085
858,0.0848
860,0.0845
862,0.0843
864,0.0841
866,0.0838
868,0.0836
870,0.0834
872,0.0833
874,0.0831
876,0.0829
878,0.0828
880,0.0826
882,0.0825
884,0.0825
886,0.0824
888,0.0823
890,0.0821
892,0.0821
894,0.0821
896,0.082
898,0.082
900,0.0819
902,0.0819
904,0.0819
906,0.0819
908,0.0818
910,0.0818
912,0.0817
914,0.0817
916,0.0816
918,0.0815
920,0.0814
922,0.0813
924,0.0813
926,0.0812
928,0.081
930,0.0809
932,0.0808
934,0.0807
936,0.0806
938,0.0805
940,0.0804
942,0.0803
944,0.0802
946,0.0802
948,0.0801
950,0.0801
952,0.0801
954,0.0802
956,0.0802
958,0.0803
960,0.0804
962,0.0806
964,0.0808
966,0.081
968,0.0812
970,0.0815
972,0.0818
974,0.0821
976,0.0824
978,0.0827
980,0.083
982,0.0833
984,0.0836
986,0.0838
988,0.084
990,0.0841
992,0.0842
994,0.0843
996,0.0843
998,0.0844
1000,0.0844
1002,0.0844
1004,0.0843
1006,0.0843
1008,0.0842
1010,0.0842
1012,0.0841
1014,0.084
1016,0.0839
1018,0.0838
1020,0.0837
1022,0.0836
1024,0.0835
1026,0.0834
1028,0.0833
1030,0.0832
1032,0.0831
1034,0.083
1036,0.0829
1038,0.0827
1040,0.0826
1042,0.0825
1044,0.0824
1046,0.0822
1048,0.0821
1050,0.082
1052,0.0819
1054,0.0819
1056,0.0816
1058,0.0815
1060,0.0814
1062,0.0813
1064,0.0811
1066,0.081
1068,0.0809
1070,0.0808
1072,0.0807
1074,0.0805
1076,0.0804
1078,0.0803
1080,0.0802
1082,0.0802
1084,0.0801
1086,0.0799
1088,0.0799
1090,0.0798
1092,0.0797
1094,0.0797
1096,0.0796
1098,0.0796
1100,0.065
1102,0.065
1104,0.065
1106,0.065
1108,0.0651
1110,0.0652
1112,0.0654
1114,0.0656
1116,0.0658
1118,0.0661
1120,0.0663
1122,0.0667
1124,0.067
1126,0.0674
1128,0.0679
1130,0.0684
1132,0.0689
1134,0.0694
1136,0.07
1138,0.0705
1140,0.0711
1142,0.0716
1144,0.0722
1146,0.0727
1148,0.0733
1150,0.0739
1152,0.0746
1154,0.0753
1156,0.0761
1158,0.0769
1160,0.0778
1162,0.0786
1164,0.0795
1166,0.0803
1168,0.0812
1170,0.082
1172,0.0828
1174,0.0836
1176,0.0845
1178,0.0853
1180,0.0862
1182,0.087
1184,0.0878
1186,0.0886
1188,0.0893
1190,0.0899
1192,0.0905
1194,0.091
1196,0.0914
1198,0.0918
1200,0.0921
1202,0.0922
1204,0.0923
1206,0.0923
1208,0.0921
1210,0.0919
1212,0.0916
1214,0.0912
1216,0.0907
1218,0.0901
1220,0.0895
1222,0.0888
1224,0.0882
1226,0.0875
1228,0.0869
1230,0.0863
1232,0.0858
1234,0.0853
1236,0.0848
1238,0.0844
1240,0.084
1242,0.0837
1244,0.0833
1246,0.0831
1248,0.0828
1250,0.0826
1252,0.0824
1254,0.0822
1256,0.0821
1258,0.0819
1260,0.0818
1262,0.0818
1264,0.0817
1266,0.0816
1268,0.0815
1270,0.0815
1272,0.0814
1274,0.0812
1276,0.0811
1278,0.081
1280,0.0808
1282,0.0806
1284,0.0804
1286,0.0802
1288,0.08
1290,0.0799
1292,0.0797
1294,0.0796
1296,0.0794
1298,0.0793
1300,0.0793
1302,0.0792
1304,0.0792
1306,0.0792
1308,0.0792
1310,0.0792
1312,0.0793
1314,0.0794
1316,0.0795
1318,0.0797
1320,0.0799
1322,0.0802
1324,0.0805
1326,0.0808
1328,0.0813
1330,0.0818
1332,0.0823
1334,0.083
1336,0.0837
1338,0.0845
1340,0.0853
1342,0.0862
1344,0.0873
1346,0.0883
1348,0.0895
1350,0.0906
1352,0.0918
1354,0.0931
1356,0.0943
1358,0.0955
1360,0.0968
1362,0.0979
1364,0.099
1366,0.1
1368,0.101
1370,0.1018
1372,0.1026
1374,0.1034
1376,0.1042
1378,0.105
1380,0.1059
1382,0.1068
1384,0.1077
1386,0.1088
1388,0.1098
1390,0.111
1392,0.1124
1394,0.1138
1396,0.1155
1398,0.1174
1400,0.1195
1402,0.1221
1404,0.1248
1406,0.128
1408,0.1315
1410,0.1351
1412,0.1392
1414,0.1432
1416,0.1476
1418,0.1521
1420,0.1564
1422,0.1609
1424,0.1652
1426,0.1694
1428,0.1735
1430,0.1771
1432,0.1806
1434,0.1838
1436,0.1866
1438,0.1892
1440,0.1914
1442,0.1933
1444,0.195
1446,0.1963
1448,0.1974
1450,0.1983
1452,0.1989
1454,0.1995
1456,0.1999
1458,0.2003
1460,0.2005
1462,0.2007
1464,0.2007
1466,0.2008
1468,0.2007
1470,0.2006
1472,0.2004
1474,0.2001
1476,0.1998
1478,0.1994
1480,0.199
1482,0.1986
1484,0.1981
1486,0.1976
1488,0.1971
1490,0.1966
1492,0.1961
1494,0.1955
1496,0.1949
1498,0.1943
1500,0.1937
1502,0.1931
1504,0.1924
1506,0.1917
1508,0.1911
1510,0.1905
1512,0.1897
1514,0.189
1516,0.1882
1518,0.1875
1520,0.1868
1522,0.1861
1524,0.1854
1526,0.1847
1528,0.1841
1530,0.1835
1532,0.1829
1534,0.1824
1536,0.1819
1538,0.1815
1540,0.181
1542,0.1806
1544,0.1802
1546,0.1798
1548,0.1794
1550,0.179
1552,0.1786
1554,0.1783
1556,0.178
1558,0.1776
1560,0.1773
1562,0.177
1564,0.1767
1566,0.1763
1568,0.176
1570,0.1757
1572,0.1753
1574,0.1749
1576,0.1745
1578,0.174
1580,0.1735
1582,0.173
1584,0.1724
1586,0.1717
1588,0.1711
1590,0.1704
1592,0.1696
1594,0.1688
1596,0.168
1598,0.1671
1600,0.1663
1602,0.1653
1604,0.1644
1606,0.1635
1608,0.1626
1610,0.1617
1612,0.1608
1614,0.1599
1616,0.1591
1618,0.1582
1620,0.1575
1622,0.1568
1624,0.1561
1626,0.1556
1628,0.155
1630,0.1544
1632,0.1539
1634,0.1533
1636,0.1526
1638,0.152
1640,0.1515
1642,0.1511
1644,0.1508
1646,0.1506
1648,0.1505
1650,0.1506
1652,0.1508
1654,0.1512
1656,0.1516
1658,0.1521
1660,0.1525
1662,0.153
1664,0.1535
1666,0.1539
1668,0.1542
1670,0.1546
1672,0.1549
1674,0.1553
1676,0.1558
1678,0.1563
1680,0.1568
1682,0.1574
1684,0.158
1686,0.1588
1688,0.1597
1690,0.1606
1692,0.1616
1694,0.1625
1696,0.1634
1698,0.1643
1700,0.1651
1702,0.1659
1704,0.1668
1706,0.1677
1708,0.1685
1710,0.1693
1712,0.1701
1714,0.1706
1716,0.171
1718,0.1713
1720,0.1715
1722,0.1715
1724,0.1715
1726,0.1713
1728,0.171
1730,0.1705
1732,0.1698
1734,0.169
1736,0.1683
1738,0.1676
1740,0.167
1742,0.1666
1744,0.1662
1746,0.1659
1748,0.1656
1750,0.1652
1752,0.1648
1754,0.1643
1756,0.1637
1758,0.1631
1760,0.1624
1762,0.1617
1764,0.1608
1766,0.1599
1768,0.1589
1770,0.158
1772,0.1572
1774,0.1564
1776,0.1556
1778,0.1548
1780,0.154
1782,0.1532
1784,0.1523
1786,0.1514
1788,0.1505
1790,0.1497
1792,0.1488
1794,0.1481
1796,0.1473
1798,0.1466
1800,0.146
1802,0.1453
1804,0.1447
1806,0.1441
1808,0.1436
1810,0.143
1812,0.1425
1814,0.1421
1816,0.1416
1818,0.1412
1820,0.1407
1822,0.1403
1824,0.1398
1826,0.1392
1828,0.1387
1830,0.1381
1832,0.1376
1834,0.137
1836,0.1363
1838,0.1357
1840,0.1351
1842,0.1344
1844,0.1338
1846,0.1333
1848,0.1328
1850,0.1323
1852,0.1319
1854,0.1316
1856,0.1314
1858,0.1312
1860,0.1311
1862,0.1311
1864,0.1312
1866,0.1315
1868,0.1319
1870,0.1325
1872,0.1332
1874,0.1341
1876,0.1351
1878,0.1365
1880,0.1381
1882,0.14
1884,0.1424
1886,0.1453
1888,0.1487
1890,0.1526
1892,0.1572
1894,0.1623
1896,0.168
1898,0.1742
1900,0.1808
1902,0.1878
1904,0.1948
1906,0.2018
1908,0.2084
1910,0.2148
1912,0.2208
1914,0.2262
1916,0.2312
1918,0.2355
1920,0.2393
1922,0.2425
1924,0.245
1926,0.247
1928,0.2485
1930,0.2495
1932,0.25
1934,0.2502
1936,0.2499
1938,0.2493
1940,0.2484
1942,0.2473
1944,0.246
1946,0.2445
1948,0.2429
1950,0.2413
1952,0.2396
1954,0.2379
1956,0.2362
1958,0.2344
1960,0.2328
1962,0.2311
1964,0.2294
1966,0.2278
1968,0.2262
1970,0.2247
1972,0.2232
1974,0.2217
1976,0.2203
1978,0.2189
1980,0.2175
1982,0.2163
1984,0.2151
1986,0.2139
1988,0.2129
1990,0.212
1992,0.2112
1994,0.2104
1996,0.2099
1998,0.2094
2000,0.2091
2002,0.2089
2004,0.2089
2006,0.209
2008,0.2094
2010,0.2099
2012,0.2107
2014,0.2116
2016,0.2129
2018,0.2143
2020,0.2161
2022,0.218
2024,0.2202
2026,0.2225
2028,0.2251
2030,0.2279
2032,0.2309
2034,0.2339
2036,0.2371
2038,0.2403
2040,0.2436
2042,0.247
2044,0.2504
2046,0.2538
2048,0.257
2050,0.2603
2052,0.2633
2054,0.2662
2056,0.2689
2058,0.2714
2060,0.2737
2062,0.2759
2064,0.2779
2066,0.2798
2068,0.2816
2070,0.2834
2072,0.2851
2074,0.2867
2076,0.2883
2078,0.2898
2080,0.2913
2082,0.2927
2084,0.2941
2086,0.2955
2088,0.2967
2090,0.298
2092,0.2993
2094,0.3004
2096,0.3016
2098,0.3027
2100,0.3037
2102,0.3047
2104,0.3056
2106,0.3064
2108,0.3072
2110,0.308
2112,0.3086
2114,0.3093
2116,0.3099
2118,0.3104
2120,0.311
2122,0.3114
2124,0.3119
2126,0.3123
2128,0.3126
2130,0.3128
2132,0.313
2134,0.313
2136,0.3131
2138,0.313
2140,0.3128
2142,0.3125
2144,0.3121
2146,0.3115
2148,0.3108
2150,0.31
2152,0.3092
2154,0.3083
2156,0.3074
2158,0.3063
2160,0.3053
2162,0.3041
2164,0.303
2166,0.3017
2168,0.3005
2170,0.2993
2172,0.298
2174,0.2967
2176,0.2954
2178,0.2941
2180,0.2928
2182,0.2914
2184,0.29
2186,0.2886
2188,0.2872
2190,0.2858
2192,0.2844
2194,0.283
2196,0.2816
2198,0.2803
2200,0.2791
2202,0.2778
2204,0.2768
2206,0.2757
2208,0.2748
2210,0.2739
2212,0.2731
2214,0.2724
2216,0.2718
2218,0.2714
2220,0.2711
2222,0.271
2224,0.2711
2226,0.2715
2228,0.2721
2230,0.2729
2232,0.2741
2234,0.2755
2236,0.2773
2238,0.2794
2240,0.2818
2242,0.2845
2244,0.2874
2246,0.2906
2248,0.294
2250,0.2975
2252,0.3012
2254,0.305
2256,0.3089
2258,0.3129
2260,0.3169
2262,0.3208
2264,0.3246
2266,0.3282
2268,0.3315
2270,0.3345
2272,0.3371
2274,0.3393
2276,0.3411
2278,0.3427
2280,0.3441
2282,0.3454
2284,0.3467
2286,0.348
2288,0.3493
2290,0.3508
2292,0.3524
2294,0.3542
2296,0.3561
2298,0.3581
2300,0.3599
2302,0.3616
2304,0.3631
2306,0.3642
2308,0.3649
2310,0.3651
2312,0.3648
2314,0.364
2316,0.3629
2318,0.3619
2320,0.3611
2322,0.3608
2324,0.3608
2326,0.3611
2328,0.3615
2330,0.3619
2332,0.3624
2334,0.3628
2336,0.3633
2338,0.3639
2340,0.3644
2342,0.3651
2344,0.3656
2346,0.366
2348,0.3662
2350,0.366
2352,0.3655
2354,0.3647
2356,0.3637
2358,0.3628
2360,0.362
2362,0.3615
2364,0.361
2366,0.3605
2368,0.36
2370,0.3595
2372,0.3589
2374,0.3584
2376,0.3578
2378,0.3572
2380,0.3568
2382,0.3565
2384,0.3562
2386,0.356
2388,0.3559
2390,0.3559
2392,0.3559
2394,0.356
2396,0.3561
2398,0.3562
2400,0.3565
2402,0.3568
2404,0.3572
2406,0.3577
2408,0.3583
2410,0.3591
2412,0.36
2414,0.361
2416,0.3621
2418,0.3634
2420,0.3647
2422,0.3662
2424,0.3679
2426,0.3698
2428,0.3718
2430,0.3739
2432,0.3761
2434,0.3786
2436,0.3813
2438,0.384
2440,0.3869
2442,0.3899
2444,0.393
2446,0.3961
2448,0.3993
2450,0.4026
2452,0.406
2454,0.4094
2456,0.4128
2458,0.4162
2460,0.4195
2462,0.4225
2464,0.4254
2466,0.4279
2468,0.4304
2470,0.4326
2472,0.4346
2474,0.4366
2476,0.4384
2478,0.4401
2480,0.4416
2482,0.4431
2484,0.4443
2486,0.4455
2488,0.4464
2490,0.4471
2492,0.4476
2494,0.4481
2496,0.4484
2498,0.4485
