#---
#spectra_types: PA
#resources:
#  fields:
#  - name: wavelengths
#    type: number
#  - name: accp|PSME_SC81_dry|NA.001
#    type: number
#
#---
wavelengths,accp|PSME_SC81_dry|NA.001
400,0.9532
402,0.9702
404,0.9826
406,0.9921
408,1.0002
410,1.0055
412,1.01
414,1.0129
416,1.0148
418,1.0165
420,1.0168
422,1.0166
424,1.0163
426,1.0169
428,1.0168
430,1.0158
432,1.0157
434,1.0141
436,1.0134
438,1.0112
440,1.0104
442,1.0086
444,1.008
446,1.0067
448,1.0057
450,1.0046
452,1.004
454,1.0028
456,1.0025
458,1.0017
460,1.0006
462,0.9997
464,0.9981
466,0.9961
468,0.9945
470,0.9917
472,0.9891
474,0.9858
476,0.9818
478,0.9784
480,0.9746
482,0.9698
484,0.9655
486,0.9611
488,0.9565
490,0.9517
492,0.9466
494,0.9409
496,0.9348
498,0.9288
500,0.9221
502,0.9145
504,0.906
506,0.8975
508,0.8881
510,0.8781
512,0.8674
514,0.8574
516,0.8469
518,0.8374
520,0.8292
522,0.8216
524,0.8152
526,0.8101
528,0.8061
530,0.8031
532,0.8003
534,0.7985
536,0.7975
538,0.7968
540,0.7964
542,0.7957
544,0.7949
546,0.794
548,0.7938
550,0.7928
552,0.7926
554,0.7931
556,0.7937
558,0.7953
560,0.7973
562,0.8
564,0.8031
566,0.8072
568,0.8116
570,0.8159
572,0.8208
574,0.8259
576,0.8302
578,0.8346
580,0.8389
582,0.8428
584,0.8463
586,0.8499
588,0.8531
590,0.8565
592,0.8592
594,0.8624
596,0.8656
598,0.8691
600,0.8725
602,0.8762
604,0.8801
606,0.8841
608,0.888
610,0.8923
612,0.896
614,0.8998
616,0.903
618,0.906
620,0.9086
622,0.9107
624,0.9121
626,0.9136
628,0.9146
630,0.9158
632,0.9175
634,0.92
636,0.9234
638,0.9282
640,0.9336
642,0.9393
644,0.9452
646,0.9513
648,0.9576
650,0.9637
652,0.9703
654,0.9769
656,0.9835
658,0.9899
660,0.996
662,1.0017
664,1.0065
666,1.011
668,1.0144
670,1.0166
672,1.0178
674,1.0175
676,1.0152
678,1.0109
680,1.0033
682,0.9916
684,0.9758
686,0.955
688,0.9293
690,0.9004
692,0.8684
694,0.8339
696,0.7995
698,0.7644
700,0.7296
702,0.6964
704,0.6639
706,0.6331
708,0.6041
710,0.5761
712,0.5502
714,0.5259
716,0.5024
718,0.4812
720,0.4612
722,0.442
724,0.4249
726,0.4087
728,0.3937
730,0.3803
732,0.3677
734,0.3563
736,0.346
738,0.3367
740,0.3282
742,0.3206
744,0.3137
746,0.3076
748,0.3022
750,0.2972
752,0.2928
754,0.2889
756,0.2852
758,0.282
760,0.2789
762,0.2762
764,0.2737
766,0.2713
768,0.2689
770,0.2668
772,0.2648
774,0.263
776,0.2615
778,0.2601
780,0.2588
782,0.2575
784,0.2563
786,0.2551
788,0.254
790,0.2529
792,0.2518
794,0.2508
796,0.2497
798,0.2488
800,0.2478
802,0.2469
804,0.2459
806,0.245
808,0.244
810,0.2431
812,0.2421
814,0.2412
816,0.2403
818,0.2393
820,0.2384
822,0.2374
824,0.2364
826,0.2355
828,0.2345
830,0.2335
832,0.2326
834,0.2316
836,0.2306
838,0.2297
840,0.2288
842,0.2279
844,0.227
846,0.2261
848,0.2252
850,0.2244
852,0.2236
854,0.2228
856,0.222
858,0.2213
860,0.2206
862,0.2199
864,0.2192
866,0.2186
868,0.2179
870,0.2173
872,0.2167
874,0.2161
876,0.2156
878,0.215
880,0.2145
882,0.214
884,0.2134
886,0.213
888,0.2124
890,0.212
892,0.2116
894,0.2112
896,0.2108
898,0.2105
900,0.2101
902,0.2097
904,0.2094
906,0.209
908,0.2086
910,0.2082
912,0.2078
914,0.2075
916,0.207
918,0.2066
920,0.2061
922,0.2056
924,0.205
926,0.2045
928,0.2039
930,0.2033
932,0.2027
934,0.2021
936,0.2015
938,0.201
940,0.2004
942,0.1998
944,0.1993
946,0.1988
948,0.1983
950,0.1979
952,0.1975
954,0.1972
956,0.197
958,0.1968
960,0.1967
962,0.1966
964,0.1966
966,0.1968
968,0.1969
970,0.1972
972,0.1975
974,0.1979
976,0.1982
978,0.1986
980,0.1989
982,0.1992
984,0.1994
986,0.1995
988,0.1996
990,0.1996
992,0.1995
994,0.1994
996,0.1992
998,0.1989
1000,0.1986
1002,0.1983
1004,0.198
1006,0.1977
1008,0.1973
1010,0.197
1012,0.1966
1014,0.1962
1016,0.1959
1018,0.1955
1020,0.1951
1022,0.1948
1024,0.1944
1026,0.194
1028,0.1936
1030,0.1933
1032,0.1929
1034,0.1926
1036,0.1923
1038,0.1919
1040,0.1916
1042,0.1913
1044,0.191
1046,0.1907
1048,0.1904
1050,0.1901
1052,0.1899
1054,0.1897
1056,0.1895
1058,0.1892
1060,0.189
1062,0.1887
1064,0.1885
1066,0.1883
1068,0.188
1070,0.1879
1072,0.1877
1074,0.1875
1076,0.1874
1078,0.1873
1080,0.1871
1082,0.187
1084,0.1869
1086,0.1868
1088,0.1867
1090,0.1866
1092,0.1866
1094,0.1866
1096,0.1866
1098,0.1866
1100,0.1792
1102,0.1794
1104,0.1796
1106,0.1798
1108,0.1801
1110,0.1805
1112,0.1809
1114,0.1814
1116,0.182
1118,0.1826
1120,0.1834
1122,0.1842
1124,0.185
1126,0.186
1128,0.1871
1130,0.1883
1132,0.1894
1134,0.1907
1136,0.1919
1138,0.1932
1140,0.1945
1142,0.1958
1144,0.1971
1146,0.1984
1148,0.1998
1150,0.2012
1152,0.2028
1154,0.2044
1156,0.2062
1158,0.208
1160,0.2099
1162,0.2118
1164,0.2137
1166,0.2156
1168,0.2174
1170,0.2192
1172,0.221
1174,0.2228
1176,0.2246
1178,0.2265
1180,0.2285
1182,0.2305
1184,0.2325
1186,0.2344
1188,0.2363
1190,0.238
1192,0.2396
1194,0.241
1196,0.2423
1198,0.2433
1200,0.2441
1202,0.2446
1204,0.2449
1206,0.2449
1208,0.2447
1210,0.2442
1212,0.2435
1214,0.2427
1216,0.2416
1218,0.2404
1220,0.239
1222,0.2375
1224,0.2361
1226,0.2347
1228,0.2333
1230,0.2321
1232,0.2309
1234,0.2298
1236,0.2289
1238,0.2279
1240,0.2271
1242,0.2264
1244,0.2257
1246,0.2251
1248,0.2245
1250,0.2241
1252,0.2237
1254,0.2234
1256,0.2231
1258,0.2229
1260,0.2228
1262,0.2227
1264,0.2226
1266,0.2225
1268,0.2224
1270,0.2223
1272,0.2222
1274,0.222
1276,0.2218
1278,0.2216
1280,0.2213
1282,0.2211
1284,0.2208
1286,0.2205
1288,0.2202
1290,0.2199
1292,0.2197
1294,0.2195
1296,0.2194
1298,0.2193
1300,0.2193
1302,0.2193
1304,0.2193
1306,0.2195
1308,0.2196
1310,0.2199
1312,0.2202
1314,0.2205
1316,0.2209
1318,0.2214
1320,0.222
1322,0.2227
1324,0.2235
1326,0.2244
1328,0.2255
1330,0.2267
1332,0.228
1334,0.2296
1336,0.2312
1338,0.2331
1340,0.2351
1342,0.2373
1344,0.2398
1346,0.2423
1348,0.245
1350,0.2479
1352,0.2507
1354,0.2537
1356,0.2566
1358,0.2595
1360,0.2624
1362,0.265
1364,0.2676
1366,0.2701
1368,0.2725
1370,0.2748
1372,0.2769
1374,0.2791
1376,0.2813
1378,0.2835
1380,0.2857
1382,0.2881
1384,0.2905
1386,0.2931
1388,0.2957
1390,0.2984
1392,0.3014
1394,0.3046
1396,0.3083
1398,0.3124
1400,0.3171
1402,0.3227
1404,0.3287
1406,0.3356
1408,0.3432
1410,0.3511
1412,0.3599
1414,0.3688
1416,0.3781
1418,0.3877
1420,0.3971
1422,0.4066
1424,0.4158
1426,0.4245
1428,0.4331
1430,0.4407
1432,0.448
1434,0.4545
1436,0.4603
1438,0.4655
1440,0.4699
1442,0.4736
1444,0.4767
1446,0.4792
1448,0.4812
1450,0.4828
1452,0.484
1454,0.485
1456,0.4856
1458,0.4861
1460,0.4865
1462,0.4867
1464,0.4868
1466,0.4867
1468,0.4865
1470,0.4862
1472,0.4858
1474,0.4854
1476,0.4848
1478,0.4842
1480,0.4836
1482,0.483
1484,0.4824
1486,0.4817
1488,0.4811
1490,0.4804
1492,0.4798
1494,0.479
1496,0.4782
1498,0.4774
1500,0.4765
1502,0.4755
1504,0.4745
1506,0.4734
1508,0.4724
1510,0.4713
1512,0.4702
1514,0.4691
1516,0.468
1518,0.4669
1520,0.4659
1522,0.465
1524,0.4641
1526,0.4634
1528,0.4627
1530,0.4621
1532,0.4615
1534,0.4611
1536,0.4607
1538,0.4604
1540,0.4601
1542,0.4598
1544,0.4595
1546,0.4593
1548,0.4591
1550,0.4589
1552,0.4588
1554,0.4587
1556,0.4586
1558,0.4585
1560,0.4585
1562,0.4585
1564,0.4585
1566,0.4585
1568,0.4585
1570,0.4584
1572,0.4582
1574,0.458
1576,0.4577
1578,0.4574
1580,0.4569
1582,0.4564
1584,0.4558
1586,0.4552
1588,0.4544
1590,0.4536
1592,0.4527
1594,0.4517
1596,0.4506
1598,0.4495
1600,0.4484
1602,0.4472
1604,0.446
1606,0.4448
1608,0.4435
1610,0.4424
1612,0.4412
1614,0.4401
1616,0.4391
1618,0.4381
1620,0.4373
1622,0.4366
1624,0.436
1626,0.4355
1628,0.4351
1630,0.4347
1632,0.4344
1634,0.434
1636,0.4336
1638,0.4332
1640,0.4328
1642,0.4325
1644,0.4325
1646,0.4326
1648,0.4331
1650,0.4339
1652,0.435
1654,0.4364
1656,0.4379
1658,0.4396
1660,0.4413
1662,0.443
1664,0.4446
1666,0.4461
1668,0.4476
1670,0.4489
1672,0.4502
1674,0.4516
1676,0.4528
1678,0.4541
1680,0.4552
1682,0.4564
1684,0.4578
1686,0.4597
1688,0.4623
1690,0.4653
1692,0.4685
1694,0.4714
1696,0.4741
1698,0.4768
1700,0.4796
1702,0.4828
1704,0.4863
1706,0.4898
1708,0.4933
1710,0.4963
1712,0.499
1714,0.501
1716,0.5025
1718,0.5036
1720,0.5042
1722,0.5044
1724,0.5044
1726,0.504
1728,0.5031
1730,0.5019
1732,0.5003
1734,0.4985
1736,0.4967
1738,0.4953
1740,0.4943
1742,0.4938
1744,0.4937
1746,0.494
1748,0.4946
1750,0.4952
1752,0.4957
1754,0.496
1756,0.4961
1758,0.4959
1760,0.4954
1762,0.4947
1764,0.4937
1766,0.4924
1768,0.491
1770,0.4895
1772,0.4881
1774,0.4868
1776,0.4855
1778,0.4842
1780,0.4829
1782,0.4815
1784,0.4803
1786,0.4792
1788,0.4782
1790,0.4772
1792,0.4763
1794,0.4754
1796,0.4746
1798,0.4738
1800,0.4729
1802,0.4722
1804,0.4714
1806,0.4707
1808,0.4701
1810,0.4694
1812,0.4689
1814,0.4683
1816,0.4677
1818,0.4671
1820,0.4664
1822,0.4657
1824,0.4648
1826,0.4638
1828,0.4628
1830,0.4617
1832,0.4607
1834,0.4598
1836,0.4589
1838,0.4581
1840,0.4572
1842,0.4562
1844,0.4552
1846,0.4541
1848,0.4533
1850,0.4527
1852,0.4525
1854,0.4524
1856,0.4525
1858,0.4526
1860,0.4528
1862,0.4532
1864,0.4537
1866,0.4543
1868,0.4552
1870,0.4562
1872,0.4576
1874,0.4592
1876,0.4613
1878,0.4639
1880,0.4669
1882,0.4706
1884,0.475
1886,0.4802
1888,0.4864
1890,0.4935
1892,0.5019
1894,0.5111
1896,0.5213
1898,0.5322
1900,0.5437
1902,0.5556
1904,0.5673
1906,0.579
1908,0.59
1910,0.6003
1912,0.6099
1914,0.6183
1916,0.6261
1918,0.6325
1920,0.6381
1922,0.6427
1924,0.6463
1926,0.649
1928,0.6509
1930,0.6521
1932,0.6525
1934,0.6522
1936,0.6515
1938,0.6502
1940,0.6486
1942,0.6466
1944,0.6443
1946,0.6419
1948,0.6393
1950,0.6367
1952,0.6339
1954,0.6312
1956,0.6284
1958,0.6257
1960,0.6231
1962,0.6205
1964,0.618
1966,0.6156
1968,0.6132
1970,0.611
1972,0.6089
1974,0.6068
1976,0.6047
1978,0.6028
1980,0.601
1982,0.5992
1984,0.5977
1986,0.5962
1988,0.595
1990,0.594
1992,0.5932
1994,0.5926
1996,0.5923
1998,0.5923
2000,0.5925
2002,0.593
2004,0.5938
2006,0.5948
2008,0.5962
2010,0.5979
2012,0.6
2014,0.6025
2016,0.6054
2018,0.6088
2020,0.6126
2022,0.6168
2024,0.6214
2026,0.6263
2028,0.6316
2030,0.637
2032,0.6427
2034,0.6485
2036,0.6545
2038,0.6606
2040,0.6669
2042,0.6732
2044,0.6794
2046,0.6856
2048,0.6915
2050,0.6973
2052,0.7027
2054,0.7078
2056,0.7125
2058,0.717
2060,0.7211
2062,0.7248
2064,0.7283
2066,0.7316
2068,0.7347
2070,0.7377
2072,0.7406
2074,0.7434
2076,0.7461
2078,0.7487
2080,0.7512
2082,0.7536
2084,0.7558
2086,0.7581
2088,0.7602
2090,0.7623
2092,0.7642
2094,0.7661
2096,0.7679
2098,0.7695
2100,0.7711
2102,0.7725
2104,0.7738
2106,0.775
2108,0.7761
2110,0.7772
2112,0.7782
2114,0.7791
2116,0.78
2118,0.7808
2120,0.7816
2122,0.7823
2124,0.7828
2126,0.7833
2128,0.7836
2130,0.7839
2132,0.7841
2134,0.7842
2136,0.7841
2138,0.7839
2140,0.7835
2142,0.7829
2144,0.782
2146,0.7808
2148,0.7796
2150,0.7781
2152,0.7766
2154,0.7749
2156,0.7731
2158,0.7712
2160,0.7692
2162,0.7671
2164,0.7649
2166,0.7627
2168,0.7605
2170,0.7582
2172,0.7559
2174,0.7535
2176,0.7511
2178,0.7487
2180,0.7462
2182,0.7437
2184,0.7412
2186,0.7387
2188,0.7361
2190,0.7336
2192,0.7311
2194,0.7287
2196,0.7263
2198,0.724
2200,0.7219
2202,0.7198
2204,0.7179
2206,0.716
2208,0.7142
2210,0.7126
2212,0.7112
2214,0.7099
2216,0.7088
2218,0.708
2220,0.7075
2222,0.7073
2224,0.7075
2226,0.7082
2228,0.7093
2230,0.7108
2232,0.7129
2234,0.7155
2236,0.7188
2238,0.7224
2240,0.7266
2242,0.7311
2244,0.7361
2246,0.7415
2248,0.7472
2250,0.7533
2252,0.7596
2254,0.7661
2256,0.7728
2258,0.7794
2260,0.7859
2262,0.7923
2264,0.7984
2266,0.8042
2268,0.8096
2270,0.8143
2272,0.8184
2274,0.8218
2276,0.8247
2278,0.8271
2280,0.8292
2282,0.8312
2284,0.8331
2286,0.8352
2288,0.8376
2290,0.8404
2292,0.8436
2294,0.8473
2296,0.8514
2298,0.8559
2300,0.8603
2302,0.8644
2304,0.8682
2306,0.8711
2308,0.8731
2310,0.8741
2312,0.8737
2314,0.8721
2316,0.8697
2318,0.8674
2320,0.8655
2322,0.8646
2324,0.8644
2326,0.8648
2328,0.8657
2330,0.8665
2332,0.8674
2334,0.8684
2336,0.8692
2338,0.8702
2340,0.8714
2342,0.8724
2344,0.8734
2346,0.874
2348,0.8741
2350,0.8734
2352,0.8716
2354,0.8691
2356,0.8663
2358,0.8634
2360,0.8607
2362,0.8585
2364,0.8565
2366,0.8548
2368,0.8533
2370,0.8522
2372,0.8515
2374,0.8512
2376,0.8512
2378,0.8514
2380,0.8518
2382,0.8522
2384,0.8525
2386,0.8526
2388,0.8524
2390,0.852
2392,0.8515
2394,0.851
2396,0.8505
2398,0.8504
2400,0.8505
2402,0.851
2404,0.8519
2406,0.853
2408,0.8545
2410,0.8561
2412,0.8578
2414,0.8597
2416,0.8618
2418,0.8641
2420,0.8665
2422,0.8692
2424,0.8719
2426,0.8749
2428,0.8781
2430,0.8813
2432,0.8847
2434,0.8884
2436,0.8922
2438,0.8964
2440,0.9006
2442,0.9049
2444,0.9093
2446,0.9138
2448,0.9184
2450,0.9231
2452,0.9278
2454,0.9328
2456,0.9379
2458,0.9429
2460,0.9477
2462,0.9523
2464,0.9566
2466,0.9606
2468,0.9642
2470,0.9676
2472,0.9711
2474,0.9741
2476,0.9771
2478,0.9799
2480,0.9825
2482,0.9849
2484,0.9869
2486,0.9886
2488,0.9901
2490,0.9912
2492,0.9922
2494,0.9929
2496,0.9932
2498,0.9936
