#---
#spectra_types: PA
#resources:
#  fields:
#  - name: wavelengths
#    type: number
#  - name: accp|92HFS2WA4|1992.001
#    type: number
#
#---
wavelengths,accp|92HFS2WA4|1992.001
400,0.767
402,0.796
404,0.82
406,0.841
408,0.861
410,0.877
412,0.891
414,0.903
416,0.913
418,0.922
420,0.93
422,0.937
424,0.942
426,0.947
428,0.95
430,0.952
432,0.954
434,0.955
436,0.954
438,0.953
440,0.952
442,0.95
444,0.948
446,0.945
448,0.942
450,0.938
452,0.936
454,0.933
456,0.932
458,0.929
460,0.925
462,0.92
464,0.917
466,0.914
468,0.91
470,0.905
472,0.9
474,0.894
476,0.889
478,0.883
480,0.876
482,0.87
484,0.864
486,0.857
488,0.849
490,0.841
492,0.834
494,0.827
496,0.819
498,0.811
500,0.803
502,0.793
504,0.784
506,0.774
508,0.764
510,0.752
512,0.742
514,0.731
516,0.72
518,0.709
520,0.698
522,0.688
524,0.679
526,0.67
528,0.662
530,0.656
532,0.651
534,0.646
536,0.643
538,0.64
540,0.636
542,0.633
544,0.629
546,0.625
548,0.62
550,0.615
552,0.609
554,0.605
556,0.6
558,0.596
560,0.592
562,0.589
564,0.586
566,0.583
568,0.581
570,0.58
572,0.578
574,0.576
576,0.575
578,0.574
580,0.573
582,0.572
584,0.572
586,0.572
588,0.573
590,0.574
592,0.576
594,0.578
596,0.581
598,0.584
600,0.587
602,0.59
604,0.593
606,0.597
608,0.6
610,0.602
612,0.604
614,0.605
616,0.606
618,0.607
620,0.607
622,0.608
624,0.608
626,0.609
628,0.611
630,0.614
632,0.617
634,0.621
636,0.626
638,0.633
640,0.64
642,0.648
644,0.657
646,0.667
648,0.677
650,0.689
652,0.701
654,0.714
656,0.727
658,0.741
660,0.754
662,0.767
664,0.779
666,0.788
668,0.794
670,0.796
672,0.794
674,0.788
676,0.775
678,0.758
680,0.737
682,0.711
684,0.683
686,0.653
688,0.622
690,0.59
692,0.56
694,0.53
696,0.502
698,0.476
700,0.452
702,0.43
704,0.41
706,0.392
708,0.375
710,0.361
712,0.347
714,0.335
716,0.324
718,0.314
720,0.305
722,0.297
724,0.289
726,0.282
728,0.276
730,0.27
732,0.265
734,0.26
736,0.255
738,0.251
740,0.247
742,0.243
744,0.24
746,0.236
748,0.234
750,0.231
752,0.228
754,0.226
756,0.223
758,0.221
760,0.218
762,0.215
764,0.212
766,0.209
768,0.206
770,0.203
772,0.2
774,0.196
776,0.193
778,0.19
780,0.187
782,0.185
784,0.182
786,0.18
788,0.178
790,0.175
792,0.173
794,0.171
796,0.169
798,0.167
800,0.166
802,0.164
804,0.162
806,0.16
808,0.159
810,0.157
812,0.155
814,0.154
816,0.152
818,0.151
820,0.149
822,0.147
824,0.146
826,0.144
828,0.143
830,0.142
832,0.14
834,0.139
836,0.137
838,0.136
840,0.135
842,0.133
844,0.132
846,0.131
848,0.13
850,0.129
852,0.127
854,0.126
856,0.125
858,0.124
860,0.123
862,0.122
864,0.121
866,0.12
868,0.119
870,0.118
872,0.117
874,0.116
876,0.115
878,0.115
880,0.114
882,0.113
884,0.112
886,0.111
888,0.111
890,0.11
892,0.109
894,0.108
896,0.108
898,0.107
900,0.106
902,0.106
904,0.105
906,0.104
908,0.104
910,0.103
912,0.102
914,0.102
916,0.101
918,0.1
920,0.1
922,0.099
924,0.099
926,0.098
928,0.097
930,0.097
932,0.096
934,0.096
936,0.095
938,0.095
940,0.094
942,0.094
944,0.093
946,0.093
948,0.092
950,0.092
952,0.091
954,0.091
956,0.091
958,0.09
960,0.09
962,0.09
964,0.09
966,0.09
968,0.089
970,0.089
972,0.089
974,0.089
976,0.089
978,0.089
980,0.089
982,0.089
984,0.089
986,0.089
988,0.088
990,0.088
992,0.088
994,0.088
996,0.087
998,0.087
1000,0.087
1002,0.086
1004,0.086
1006,0.086
1008,0.085
1010,0.085
1012,0.085
1014,0.084
1016,0.084
1018,0.084
1020,0.083
1022,0.083
1024,0.083
1026,0.082
1028,0.082
1030,0.082
1032,0.081
1034,0.081
1036,0.081
1038,0.08
1040,0.08
1042,0.08
1044,0.079
1046,0.079
1048,0.079
1050,0.079
1052,0.078
1054,0.078
1056,0.078
1058,0.077
1060,0.077
1062,0.077
1064,0.077
1066,0.076
1068,0.076
1070,0.076
1072,0.076
1074,0.075
1076,0.075
1078,0.075
1080,0.075
1082,0.074
1084,0.074
1086,0.074
1088,0.074
1090,0.074
1092,0.073
1094,0.073
1096,0.073
1098,0.073
1100,0.055
1102,0.055
1104,0.055
1106,0.055
1108,0.055
1110,0.055
1112,0.055
1114,0.055
1116,0.055
1118,0.056
1120,0.056
1122,0.056
1124,0.056
1126,0.057
1128,0.057
1130,0.058
1132,0.058
1134,0.059
1136,0.06
1138,0.06
1140,0.061
1142,0.061
1144,0.062
1146,0.063
1148,0.063
1150,0.064
1152,0.065
1154,0.066
1156,0.066
1158,0.067
1160,0.068
1162,0.069
1164,0.07
1166,0.071
1168,0.072
1170,0.073
1172,0.074
1174,0.075
1176,0.076
1178,0.077
1180,0.077
1182,0.078
1184,0.079
1186,0.08
1188,0.081
1190,0.081
1192,0.082
1194,0.082
1196,0.083
1198,0.083
1200,0.083
1202,0.084
1204,0.084
1206,0.084
1208,0.084
1210,0.084
1212,0.084
1214,0.083
1216,0.083
1218,0.082
1220,0.082
1222,0.081
1224,0.08
1226,0.079
1228,0.079
1230,0.078
1232,0.077
1234,0.077
1236,0.076
1238,0.075
1240,0.075
1242,0.074
1244,0.074
1246,0.073
1248,0.073
1250,0.073
1252,0.072
1254,0.072
1256,0.072
1258,0.072
1260,0.071
1262,0.071
1264,0.071
1266,0.071
1268,0.071
1270,0.071
1272,0.071
1274,0.07
1276,0.07
1278,0.07
1280,0.07
1282,0.069
1284,0.069
1286,0.069
1288,0.069
1290,0.068
1292,0.068
1294,0.068
1296,0.068
1298,0.068
1300,0.067
1302,0.067
1304,0.067
1306,0.067
1308,0.067
1310,0.067
1312,0.067
1314,0.068
1316,0.068
1318,0.068
1320,0.068
1322,0.069
1324,0.069
1326,0.069
1328,0.07
1330,0.071
1332,0.071
1334,0.072
1336,0.073
1338,0.074
1340,0.075
1342,0.077
1344,0.078
1346,0.079
1348,0.081
1350,0.083
1352,0.084
1354,0.086
1356,0.087
1358,0.089
1360,0.09
1362,0.091
1364,0.093
1366,0.094
1368,0.095
1370,0.096
1372,0.096
1374,0.097
1376,0.098
1378,0.099
1380,0.099
1382,0.1
1384,0.101
1386,0.102
1388,0.104
1390,0.105
1392,0.106
1394,0.108
1396,0.109
1398,0.111
1400,0.113
1402,0.116
1404,0.119
1406,0.122
1408,0.126
1410,0.13
1412,0.134
1414,0.139
1416,0.143
1418,0.148
1420,0.152
1422,0.157
1424,0.161
1426,0.165
1428,0.169
1430,0.173
1432,0.176
1434,0.178
1436,0.181
1438,0.182
1440,0.184
1442,0.185
1444,0.186
1446,0.187
1448,0.188
1450,0.188
1452,0.188
1454,0.188
1456,0.189
1458,0.189
1460,0.189
1462,0.189
1464,0.188
1466,0.188
1468,0.188
1470,0.188
1472,0.188
1474,0.188
1476,0.187
1478,0.187
1480,0.187
1482,0.187
1484,0.187
1486,0.187
1488,0.186
1490,0.186
1492,0.186
1494,0.185
1496,0.185
1498,0.185
1500,0.184
1502,0.184
1504,0.183
1506,0.182
1508,0.182
1510,0.181
1512,0.18
1514,0.18
1516,0.179
1518,0.178
1520,0.177
1522,0.177
1524,0.176
1526,0.175
1528,0.175
1530,0.174
1532,0.174
1534,0.174
1536,0.173
1538,0.173
1540,0.172
1542,0.172
1544,0.172
1546,0.172
1548,0.171
1550,0.171
1552,0.171
1554,0.17
1556,0.17
1558,0.17
1560,0.17
1562,0.17
1564,0.17
1566,0.169
1568,0.169
1570,0.169
1572,0.169
1574,0.169
1576,0.168
1578,0.168
1580,0.168
1582,0.168
1584,0.167
1586,0.167
1588,0.166
1590,0.166
1592,0.165
1594,0.164
1596,0.164
1598,0.163
1600,0.162
1602,0.161
1604,0.161
1606,0.16
1608,0.159
1610,0.158
1612,0.158
1614,0.157
1616,0.156
1618,0.156
1620,0.155
1622,0.155
1624,0.154
1626,0.154
1628,0.153
1630,0.153
1632,0.153
1634,0.152
1636,0.152
1638,0.152
1640,0.152
1642,0.152
1644,0.152
1646,0.152
1648,0.152
1650,0.153
1652,0.153
1654,0.154
1656,0.154
1658,0.155
1660,0.156
1662,0.157
1664,0.158
1666,0.159
1668,0.16
1670,0.161
1672,0.163
1674,0.164
1676,0.165
1678,0.166
1680,0.167
1682,0.168
1684,0.169
1686,0.17
1688,0.171
1690,0.172
1692,0.173
1694,0.174
1696,0.176
1698,0.177
1700,0.178
1702,0.179
1704,0.18
1706,0.182
1708,0.183
1710,0.184
1712,0.185
1714,0.186
1716,0.188
1718,0.189
1720,0.19
1722,0.191
1724,0.191
1726,0.192
1728,0.192
1730,0.191
1732,0.19
1734,0.189
1736,0.188
1738,0.187
1740,0.186
1742,0.185
1744,0.185
1746,0.184
1748,0.184
1750,0.184
1752,0.184
1754,0.184
1756,0.184
1758,0.183
1760,0.183
1762,0.183
1764,0.182
1766,0.181
1768,0.18
1770,0.18
1772,0.179
1774,0.178
1776,0.177
1778,0.177
1780,0.176
1782,0.175
1784,0.175
1786,0.175
1788,0.174
1790,0.174
1792,0.174
1794,0.173
1796,0.173
1798,0.173
1800,0.172
1802,0.172
1804,0.172
1806,0.171
1808,0.171
1810,0.171
1812,0.171
1814,0.17
1816,0.17
1818,0.17
1820,0.169
1822,0.169
1824,0.168
1826,0.168
1828,0.167
1830,0.167
1832,0.166
1834,0.165
1836,0.165
1838,0.164
1840,0.164
1842,0.163
1844,0.162
1846,0.162
1848,0.161
1850,0.161
1852,0.16
1854,0.16
1856,0.16
1858,0.16
1860,0.16
1862,0.16
1864,0.16
1866,0.16
1868,0.16
1870,0.161
1872,0.162
1874,0.163
1876,0.164
1878,0.165
1880,0.167
1882,0.169
1884,0.171
1886,0.174
1888,0.178
1890,0.182
1892,0.187
1894,0.192
1896,0.197
1898,0.203
1900,0.209
1902,0.215
1904,0.221
1906,0.226
1908,0.231
1910,0.236
1912,0.24
1914,0.243
1916,0.246
1918,0.249
1920,0.25
1922,0.252
1924,0.253
1926,0.253
1928,0.253
1930,0.253
1932,0.253
1934,0.252
1936,0.251
1938,0.25
1940,0.248
1942,0.247
1944,0.245
1946,0.244
1948,0.242
1950,0.241
1952,0.239
1954,0.238
1956,0.236
1958,0.235
1960,0.234
1962,0.233
1964,0.232
1966,0.231
1968,0.23
1970,0.229
1972,0.228
1974,0.227
1976,0.226
1978,0.225
1980,0.225
1982,0.224
1984,0.223
1986,0.223
1988,0.222
1990,0.222
1992,0.221
1994,0.221
1996,0.221
1998,0.222
2000,0.222
2002,0.223
2004,0.223
2006,0.224
2008,0.226
2010,0.227
2012,0.229
2014,0.231
2016,0.233
2018,0.235
2020,0.238
2022,0.241
2024,0.244
2026,0.247
2028,0.25
2030,0.254
2032,0.257
2034,0.261
2036,0.265
2038,0.268
2040,0.272
2042,0.276
2044,0.279
2046,0.283
2048,0.286
2050,0.289
2052,0.292
2054,0.294
2056,0.297
2058,0.299
2060,0.301
2062,0.302
2064,0.304
2066,0.305
2068,0.307
2070,0.308
2072,0.309
2074,0.311
2076,0.312
2078,0.313
2080,0.314
2082,0.315
2084,0.316
2086,0.317
2088,0.318
2090,0.319
2092,0.319
2094,0.32
2096,0.321
2098,0.322
2100,0.322
2102,0.323
2104,0.323
2106,0.324
2108,0.324
2110,0.324
2112,0.325
2114,0.325
2116,0.325
2118,0.325
2120,0.325
2122,0.325
2124,0.325
2126,0.325
2128,0.325
2130,0.325
2132,0.325
2134,0.325
2136,0.325
2138,0.325
2140,0.325
2142,0.324
2144,0.324
2146,0.324
2148,0.323
2150,0.323
2152,0.322
2154,0.321
2156,0.321
2158,0.32
2160,0.319
2162,0.319
2164,0.318
2166,0.317
2168,0.316
2170,0.315
2172,0.314
2174,0.312
2176,0.311
2178,0.31
2180,0.309
2182,0.307
2184,0.306
2186,0.305
2188,0.303
2190,0.302
2192,0.301
2194,0.299
2196,0.298
2198,0.297
2200,0.296
2202,0.295
2204,0.294
2206,0.293
2208,0.292
2210,0.291
2212,0.29
2214,0.29
2216,0.29
2218,0.29
2220,0.29
2222,0.29
2224,0.291
2226,0.292
2228,0.293
2230,0.295
2232,0.297
2234,0.299
2236,0.302
2238,0.305
2240,0.308
2242,0.312
2244,0.315
2246,0.319
2248,0.323
2250,0.327
2252,0.33
2254,0.334
2256,0.337
2258,0.341
2260,0.344
2262,0.348
2264,0.351
2266,0.354
2268,0.357
2270,0.36
2272,0.362
2274,0.364
2276,0.366
2278,0.368
2280,0.37
2282,0.371
2284,0.373
2286,0.375
2288,0.376
2290,0.378
2292,0.381
2294,0.383
2296,0.386
2298,0.388
2300,0.391
2302,0.393
2304,0.394
2306,0.396
2308,0.397
2310,0.397
2312,0.397
2314,0.396
2316,0.395
2318,0.394
2320,0.392
2322,0.391
2324,0.391
2326,0.391
2328,0.391
2330,0.392
2332,0.392
2334,0.393
2336,0.394
2338,0.395
2340,0.396
2342,0.397
2344,0.397
2346,0.398
2348,0.398
2350,0.398
2352,0.397
2354,0.396
2356,0.394
2358,0.393
2360,0.392
2362,0.391
2364,0.39
2366,0.389
2368,0.388
2370,0.388
2372,0.387
2374,0.386
2376,0.385
2378,0.384
2380,0.384
2382,0.383
2384,0.383
2386,0.382
2388,0.382
2390,0.381
2392,0.381
2394,0.38
2396,0.38
2398,0.38
2400,0.38
2402,0.38
2404,0.38
2406,0.38
2408,0.38
2410,0.381
2412,0.381
2414,0.382
2416,0.383
2418,0.384
2420,0.386
2422,0.387
2424,0.389
2426,0.39
2428,0.392
2430,0.394
2432,0.397
2434,0.399
2436,0.402
2438,0.404
2440,0.407
2442,0.41
2444,0.413
2446,0.416
2448,0.419
2450,0.422
2452,0.425
2454,0.428
2456,0.431
2458,0.434
2460,0.437
2462,0.44
2464,0.443
2466,0.446
2468,0.449
2470,0.451
2472,0.453
2474,0.455
2476,0.457
2478,0.459
2480,0.461
2482,0.462
2484,0.463
2486,0.464
2488,0.465
2490,0.465
2492,0.466
2494,0.466
2496,0.465
2498,0.465
