#---
#spectra_types: PA
#resources:
#  fields:
#  - name: wavelengths
#    type: number
#  - name: accp|PSME_SC27_dry|NA.001
#    type: number
#
#---
wavelengths,accp|PSME_SC27_dry|NA.001
400,0.9896
402,1.0075
404,1.0214
406,1.0327
408,1.0412
410,1.0487
412,1.0549
414,1.0583
416,1.063
418,1.0664
420,1.0683
422,1.0717
424,1.0752
426,1.0763
428,1.0783
430,1.079
432,1.0805
434,1.0815
436,1.0819
438,1.0827
440,1.0824
442,1.0822
444,1.0823
446,1.0822
448,1.0823
450,1.0813
452,1.082
454,1.081
456,1.0798
458,1.0798
460,1.0784
462,1.0777
464,1.0758
466,1.0737
468,1.0712
470,1.0691
472,1.0648
474,1.061
476,1.0565
478,1.0522
480,1.0471
482,1.0422
484,1.0369
486,1.0324
488,1.0268
490,1.0215
492,1.0163
494,1.0104
496,1.0051
498,0.9997
500,0.9927
502,0.9872
504,0.9807
506,0.9735
508,0.9651
510,0.9576
512,0.9483
514,0.9397
516,0.9322
518,0.9246
520,0.9186
522,0.9118
524,0.9072
526,0.9034
528,0.9006
530,0.8984
532,0.8971
534,0.8959
536,0.8955
538,0.8962
540,0.8961
542,0.8963
544,0.8964
546,0.8968
548,0.8972
550,0.8978
552,0.8985
554,0.9001
556,0.9022
558,0.9047
560,0.9077
562,0.9123
564,0.9173
566,0.9226
568,0.9284
570,0.9343
572,0.9404
574,0.9471
576,0.9537
578,0.9591
580,0.9636
582,0.9687
584,0.9731
586,0.9775
588,0.9821
590,0.9865
592,0.9907
594,0.9947
596,0.9988
598,1.0035
600,1.0075
602,1.0121
604,1.0169
606,1.0213
608,1.0258
610,1.0299
612,1.034
614,1.0374
616,1.0404
618,1.0429
620,1.0447
622,1.0465
624,1.048
626,1.0489
628,1.05
630,1.0508
632,1.052
634,1.0536
636,1.0563
638,1.0602
640,1.0649
642,1.0702
644,1.0758
646,1.0813
648,1.0868
650,1.0927
652,1.0984
654,1.1041
656,1.1098
658,1.1148
660,1.1193
662,1.1234
664,1.1267
666,1.1295
668,1.1314
670,1.1322
672,1.1323
674,1.131
676,1.1279
678,1.1225
680,1.1143
682,1.1024
684,1.085
686,1.0634
688,1.0358
690,1.0036
692,0.9685
694,0.9297
696,0.8901
698,0.8503
700,0.8099
702,0.7713
704,0.7339
706,0.6969
708,0.6633
710,0.6308
712,0.5994
714,0.5711
716,0.5439
718,0.5181
720,0.4945
722,0.4721
724,0.4511
726,0.4319
728,0.4137
730,0.397
732,0.3817
734,0.3673
736,0.3544
738,0.3426
740,0.3315
742,0.322
744,0.3131
746,0.305
748,0.298
750,0.2916
752,0.2859
754,0.2809
756,0.2765
758,0.2725
760,0.2691
762,0.2659
764,0.263
766,0.2605
768,0.258
770,0.2557
772,0.2535
774,0.2515
776,0.2498
778,0.2482
780,0.2469
782,0.2457
784,0.2446
786,0.2435
788,0.2425
790,0.2414
792,0.2405
794,0.2396
796,0.2386
798,0.2378
800,0.2369
802,0.2361
804,0.2353
806,0.2344
808,0.2336
810,0.2328
812,0.232
814,0.2312
816,0.2304
818,0.2295
820,0.2287
822,0.2279
824,0.227
826,0.2262
828,0.2254
830,0.2245
832,0.2237
834,0.2229
836,0.2221
838,0.2212
840,0.2204
842,0.2197
844,0.2189
846,0.2181
848,0.2174
850,0.2166
852,0.2159
854,0.2152
856,0.2146
858,0.2139
860,0.2133
862,0.2127
864,0.2121
866,0.2115
868,0.211
870,0.2104
872,0.2099
874,0.2094
876,0.2089
878,0.2084
880,0.2079
882,0.2074
884,0.207
886,0.2066
888,0.2062
890,0.2059
892,0.2055
894,0.2052
896,0.2049
898,0.2047
900,0.2044
902,0.2041
904,0.2039
906,0.2036
908,0.2033
910,0.203
912,0.2027
914,0.2023
916,0.202
918,0.2016
920,0.2011
922,0.2007
924,0.2002
926,0.1996
928,0.1991
930,0.1986
932,0.198
934,0.1975
936,0.1969
938,0.1964
940,0.1958
942,0.1953
944,0.1948
946,0.1944
948,0.194
950,0.1936
952,0.1933
954,0.193
956,0.1928
958,0.1927
960,0.1927
962,0.1928
964,0.193
966,0.1933
968,0.1938
970,0.1942
972,0.1948
974,0.1954
976,0.196
978,0.1965
980,0.197
982,0.1974
984,0.1977
986,0.1979
988,0.1981
990,0.1981
992,0.198
994,0.1979
996,0.1978
998,0.1975
1000,0.1973
1002,0.197
1004,0.1967
1006,0.1964
1008,0.1961
1010,0.1958
1012,0.1954
1014,0.1951
1016,0.1948
1018,0.1944
1020,0.1941
1022,0.1937
1024,0.1934
1026,0.193
1028,0.1927
1030,0.1923
1032,0.192
1034,0.1917
1036,0.1914
1038,0.1911
1040,0.1908
1042,0.1904
1044,0.1901
1046,0.1899
1048,0.1896
1050,0.1893
1052,0.1891
1054,0.1888
1056,0.1886
1058,0.1884
1060,0.1881
1062,0.1878
1064,0.1876
1066,0.1874
1068,0.1871
1070,0.1869
1072,0.1867
1074,0.1866
1076,0.1864
1078,0.1862
1080,0.1861
1082,0.1859
1084,0.1858
1086,0.1857
1088,0.1855
1090,0.1854
1092,0.1853
1094,0.1853
1096,0.1853
1098,0.1852
1100,0.1803
1102,0.1805
1104,0.1807
1106,0.181
1108,0.1813
1110,0.1817
1112,0.1821
1114,0.1827
1116,0.1833
1118,0.184
1120,0.1848
1122,0.1857
1124,0.1867
1126,0.1878
1128,0.1889
1130,0.1902
1132,0.1915
1134,0.1928
1136,0.1941
1138,0.1954
1140,0.1967
1142,0.1979
1144,0.1991
1146,0.2004
1148,0.2016
1150,0.203
1152,0.2045
1154,0.2061
1156,0.2078
1158,0.2097
1160,0.2116
1162,0.2137
1164,0.2157
1166,0.2178
1168,0.2198
1170,0.2218
1172,0.2238
1174,0.2259
1176,0.2279
1178,0.2301
1180,0.2322
1182,0.2344
1184,0.2366
1186,0.2386
1188,0.2405
1190,0.2422
1192,0.2438
1194,0.2453
1196,0.2466
1198,0.2476
1200,0.2485
1202,0.249
1204,0.2493
1206,0.2492
1208,0.249
1210,0.2485
1212,0.2478
1214,0.2469
1216,0.2458
1218,0.2445
1220,0.2431
1222,0.2416
1224,0.2401
1226,0.2387
1228,0.2373
1230,0.236
1232,0.2348
1234,0.2336
1236,0.2326
1238,0.2316
1240,0.2306
1242,0.2298
1244,0.229
1246,0.2283
1248,0.2276
1250,0.2271
1252,0.2266
1254,0.2263
1256,0.2259
1258,0.2257
1260,0.2255
1262,0.2254
1264,0.2252
1266,0.2251
1268,0.225
1270,0.2249
1272,0.2248
1274,0.2246
1276,0.2243
1278,0.224
1280,0.2237
1282,0.2233
1284,0.2229
1286,0.2225
1288,0.2222
1290,0.2218
1292,0.2214
1294,0.2212
1296,0.2209
1298,0.2207
1300,0.2206
1302,0.2205
1304,0.2204
1306,0.2204
1308,0.2204
1310,0.2205
1312,0.2207
1314,0.2209
1316,0.2211
1318,0.2215
1320,0.2219
1322,0.2224
1324,0.223
1326,0.2237
1328,0.2245
1330,0.2255
1332,0.2267
1334,0.228
1336,0.2296
1338,0.2313
1340,0.2333
1342,0.2356
1344,0.2381
1346,0.2408
1348,0.2437
1350,0.2468
1352,0.2498
1354,0.253
1356,0.2562
1358,0.2592
1360,0.2623
1362,0.2651
1364,0.2679
1366,0.2705
1368,0.273
1370,0.2753
1372,0.2774
1374,0.2795
1376,0.2815
1378,0.2835
1380,0.2855
1382,0.2875
1384,0.2895
1386,0.2915
1388,0.2935
1390,0.2956
1392,0.2977
1394,0.3
1396,0.3028
1398,0.3059
1400,0.3098
1402,0.3145
1404,0.3199
1406,0.3263
1408,0.3337
1410,0.3418
1412,0.3511
1414,0.3607
1416,0.371
1418,0.382
1420,0.3926
1422,0.4036
1424,0.4142
1426,0.4242
1428,0.434
1430,0.4426
1432,0.4507
1434,0.4578
1436,0.464
1438,0.4695
1440,0.4739
1442,0.4776
1444,0.4806
1446,0.4829
1448,0.4846
1450,0.4859
1452,0.4867
1454,0.4872
1456,0.4874
1458,0.4875
1460,0.4874
1462,0.4871
1464,0.4867
1466,0.4863
1468,0.4858
1470,0.4853
1472,0.4848
1474,0.4842
1476,0.4837
1478,0.4832
1480,0.4828
1482,0.4824
1484,0.482
1486,0.4817
1488,0.4813
1490,0.481
1492,0.4805
1494,0.48
1496,0.4794
1498,0.4787
1500,0.4779
1502,0.477
1504,0.4761
1506,0.4751
1508,0.4741
1510,0.473
1512,0.4718
1514,0.4707
1516,0.4695
1518,0.4684
1520,0.4673
1522,0.4662
1524,0.4653
1526,0.4644
1528,0.4636
1530,0.4629
1532,0.4622
1534,0.4617
1536,0.4611
1538,0.4607
1540,0.4603
1542,0.4599
1544,0.4595
1546,0.4592
1548,0.4588
1550,0.4585
1552,0.4583
1554,0.4581
1556,0.4579
1558,0.4578
1560,0.4577
1562,0.4577
1564,0.4576
1566,0.4576
1568,0.4575
1570,0.4574
1572,0.4573
1574,0.457
1576,0.4567
1578,0.4563
1580,0.4558
1582,0.4552
1584,0.4546
1586,0.4539
1588,0.453
1590,0.4522
1592,0.4511
1594,0.4501
1596,0.4489
1598,0.4477
1600,0.4465
1602,0.4452
1604,0.4439
1606,0.4426
1608,0.4413
1610,0.44
1612,0.4388
1614,0.4377
1616,0.4366
1618,0.4357
1620,0.4348
1622,0.4341
1624,0.4335
1626,0.433
1628,0.4325
1630,0.4321
1632,0.4317
1634,0.4314
1636,0.431
1638,0.4306
1640,0.4303
1642,0.4302
1644,0.4302
1646,0.4305
1648,0.4312
1650,0.4321
1652,0.4334
1654,0.435
1656,0.4367
1658,0.4386
1660,0.4405
1662,0.4425
1664,0.4443
1666,0.4461
1668,0.4478
1670,0.4494
1672,0.4511
1674,0.4527
1676,0.4543
1678,0.456
1680,0.4575
1682,0.4591
1684,0.461
1686,0.4633
1688,0.4663
1690,0.4695
1692,0.473
1694,0.4763
1696,0.4793
1698,0.4823
1700,0.4852
1702,0.4884
1704,0.4918
1706,0.4953
1708,0.499
1710,0.5022
1712,0.505
1714,0.5073
1716,0.5088
1718,0.5099
1720,0.5104
1722,0.5106
1724,0.5104
1726,0.5099
1728,0.5089
1730,0.5076
1732,0.5059
1734,0.5041
1736,0.5024
1738,0.5009
1740,0.4998
1742,0.4991
1744,0.4988
1746,0.4987
1748,0.4987
1750,0.4988
1752,0.4987
1754,0.4984
1756,0.4979
1758,0.4972
1760,0.4962
1762,0.4949
1764,0.4934
1766,0.4917
1768,0.4899
1770,0.4882
1772,0.4865
1774,0.485
1776,0.4836
1778,0.4821
1780,0.4806
1782,0.479
1784,0.4774
1786,0.4759
1788,0.4745
1790,0.4732
1792,0.472
1794,0.4709
1796,0.4699
1798,0.4689
1800,0.468
1802,0.4672
1804,0.4664
1806,0.4657
1808,0.465
1810,0.4644
1812,0.4638
1814,0.4632
1816,0.4626
1818,0.462
1820,0.4613
1822,0.4605
1824,0.4597
1826,0.4587
1828,0.4576
1830,0.4565
1832,0.4554
1834,0.4544
1836,0.4534
1838,0.4524
1840,0.4513
1842,0.4502
1844,0.449
1846,0.4478
1848,0.4468
1850,0.4459
1852,0.4453
1854,0.4449
1856,0.4445
1858,0.4442
1860,0.444
1862,0.4439
1864,0.4438
1866,0.4438
1868,0.444
1870,0.4443
1872,0.4448
1874,0.4456
1876,0.4466
1878,0.448
1880,0.4495
1882,0.4516
1884,0.4541
1886,0.457
1888,0.4607
1890,0.465
1892,0.4701
1894,0.4758
1896,0.4824
1898,0.4894
1900,0.497
1902,0.505
1904,0.5129
1906,0.521
1908,0.5285
1910,0.5357
1912,0.5423
1914,0.5483
1916,0.5537
1918,0.5584
1920,0.5625
1922,0.5659
1924,0.5687
1926,0.5709
1928,0.5725
1930,0.5736
1932,0.5743
1934,0.5746
1936,0.5745
1938,0.5741
1940,0.5734
1942,0.5726
1944,0.5716
1946,0.5704
1948,0.5692
1950,0.568
1952,0.5667
1954,0.5655
1956,0.5643
1958,0.5632
1960,0.5623
1962,0.5614
1964,0.5608
1966,0.5602
1968,0.5597
1970,0.5594
1972,0.559
1974,0.5587
1976,0.5584
1978,0.5581
1980,0.5578
1982,0.5577
1984,0.5576
1986,0.5577
1988,0.5579
1990,0.5584
1992,0.559
1994,0.56
1996,0.5611
1998,0.5626
2000,0.5644
2002,0.5665
2004,0.569
2006,0.5718
2008,0.575
2010,0.5786
2012,0.5826
2014,0.587
2016,0.5919
2018,0.5973
2020,0.6029
2022,0.6091
2024,0.6155
2026,0.6222
2028,0.6292
2030,0.6362
2032,0.6436
2034,0.6508
2036,0.6584
2038,0.6658
2040,0.6734
2042,0.6808
2044,0.6881
2046,0.6953
2048,0.7021
2050,0.7087
2052,0.7147
2054,0.7203
2056,0.7254
2058,0.7301
2060,0.7343
2062,0.738
2064,0.7416
2066,0.7449
2068,0.748
2070,0.7509
2072,0.7537
2074,0.7565
2076,0.7591
2078,0.7617
2080,0.7643
2082,0.7668
2084,0.7692
2086,0.7716
2088,0.7739
2090,0.7762
2092,0.7784
2094,0.7805
2096,0.7825
2098,0.7845
2100,0.7863
2102,0.788
2104,0.7896
2106,0.791
2108,0.7924
2110,0.7937
2112,0.795
2114,0.7961
2116,0.7972
2118,0.7982
2120,0.7992
2122,0.8
2124,0.8007
2126,0.8014
2128,0.8019
2130,0.8024
2132,0.8027
2134,0.803
2136,0.8032
2138,0.8032
2140,0.803
2142,0.8026
2144,0.8019
2146,0.801
2148,0.7999
2150,0.7987
2152,0.7974
2154,0.796
2156,0.7945
2158,0.7928
2160,0.7909
2162,0.789
2164,0.7869
2166,0.7847
2168,0.7825
2170,0.7801
2172,0.7777
2174,0.7751
2176,0.7725
2178,0.7697
2180,0.767
2182,0.7642
2184,0.7613
2186,0.7584
2188,0.7554
2190,0.7525
2192,0.7495
2194,0.7466
2196,0.7439
2198,0.7412
2200,0.7385
2202,0.736
2204,0.7336
2206,0.7314
2208,0.7292
2210,0.7272
2212,0.7253
2214,0.7235
2216,0.722
2218,0.7207
2220,0.7198
2222,0.7191
2224,0.7189
2226,0.7192
2228,0.7199
2230,0.7213
2232,0.7232
2234,0.7258
2236,0.7289
2238,0.7326
2240,0.7369
2242,0.7416
2244,0.747
2246,0.7527
2248,0.7588
2250,0.7652
2252,0.772
2254,0.7789
2256,0.7859
2258,0.7929
2260,0.8
2262,0.8067
2264,0.8134
2266,0.8196
2268,0.8253
2270,0.8304
2272,0.8348
2274,0.8385
2276,0.8416
2278,0.8442
2280,0.8465
2282,0.8487
2284,0.8509
2286,0.8531
2288,0.8556
2290,0.8584
2292,0.8616
2294,0.8651
2296,0.8689
2298,0.8729
2300,0.8769
2302,0.8807
2304,0.8839
2306,0.8864
2308,0.8879
2310,0.8882
2312,0.8873
2314,0.8853
2316,0.8829
2318,0.8806
2320,0.879
2322,0.8784
2324,0.8784
2326,0.879
2328,0.8799
2330,0.8807
2332,0.8815
2334,0.8824
2336,0.8831
2338,0.884
2340,0.8848
2342,0.8857
2344,0.8865
2346,0.8869
2348,0.8867
2350,0.8858
2352,0.8839
2354,0.8814
2356,0.8786
2358,0.8757
2360,0.873
2362,0.8706
2364,0.8684
2366,0.8664
2368,0.8645
2370,0.8629
2372,0.8615
2374,0.8605
2376,0.8597
2378,0.859
2380,0.8585
2382,0.8581
2384,0.8576
2386,0.8571
2388,0.8565
2390,0.8558
2392,0.855
2394,0.8542
2396,0.8535
2398,0.8529
2400,0.8526
2402,0.8526
2404,0.8529
2406,0.8535
2408,0.8543
2410,0.8552
2412,0.8564
2414,0.8578
2416,0.8594
2418,0.8611
2420,0.8633
2422,0.8656
2424,0.8682
2426,0.871
2428,0.8741
2430,0.8773
2432,0.8809
2434,0.8848
2436,0.889
2438,0.8934
2440,0.8981
2442,0.9029
2444,0.9078
2446,0.9128
2448,0.918
2450,0.9233
2452,0.9287
2454,0.9343
2456,0.9399
2458,0.9455
2460,0.9508
2462,0.9557
2464,0.9602
2466,0.9643
2468,0.9679
2470,0.9714
2472,0.9747
2474,0.978
2476,0.9809
2478,0.9837
2480,0.9861
2482,0.9884
2484,0.9903
2486,0.992
2488,0.9932
2490,0.9944
2492,0.9951
2494,0.9956
2496,0.996
2498,0.9961
