#---
#spectra_types: PA
#resources:
#  fields:
#  - name: wavelengths
#    type: number
#  - name: accp|PSME_SC85_dry|NA.001
#    type: number
#
#---
wavelengths,accp|PSME_SC85_dry|NA.001
400,0.9566
402,0.9723
404,0.9861
406,0.9948
408,1.0023
410,1.0074
412,1.0106
414,1.0137
416,1.0151
418,1.0163
420,1.0176
422,1.0187
424,1.0197
426,1.0203
428,1.0203
430,1.0204
432,1.0206
434,1.0203
436,1.0198
438,1.02
440,1.02
442,1.0197
444,1.0196
446,1.0191
448,1.0193
450,1.019
452,1.0189
454,1.019
456,1.0185
458,1.0184
460,1.018
462,1.0174
464,1.0157
466,1.0148
468,1.0129
470,1.0104
472,1.0076
474,1.004
476,1.0005
478,0.9977
480,0.9932
482,0.9886
484,0.9843
486,0.9801
488,0.976
490,0.9719
492,0.9669
494,0.9625
496,0.9572
498,0.9525
500,0.9462
502,0.9407
504,0.9334
506,0.926
508,0.9186
510,0.9095
512,0.9014
514,0.8934
516,0.885
518,0.8782
520,0.8725
522,0.8676
524,0.8627
526,0.8601
528,0.8575
530,0.8564
532,0.8552
534,0.8548
536,0.8551
538,0.8554
540,0.8563
542,0.8568
544,0.857
546,0.8572
548,0.8572
550,0.8578
552,0.8581
554,0.859
556,0.8603
558,0.8623
560,0.8648
562,0.8678
564,0.8717
566,0.8757
568,0.8804
570,0.8854
572,0.8903
574,0.8953
576,0.9007
578,0.9055
580,0.9101
582,0.9144
584,0.9178
586,0.9218
588,0.9252
590,0.928
592,0.9309
594,0.9341
596,0.9375
598,0.9414
600,0.945
602,0.9492
604,0.9535
606,0.958
608,0.9625
610,0.9669
612,0.9709
614,0.975
616,0.9786
618,0.9817
620,0.9843
622,0.9864
624,0.9878
626,0.9889
628,0.9895
630,0.99
632,0.9909
634,0.9925
636,0.9951
638,0.9987
640,1.0031
642,1.008
644,1.013
646,1.0183
648,1.0235
650,1.029
652,1.0347
654,1.0406
656,1.0461
658,1.0512
660,1.056
662,1.06
664,1.0634
666,1.0662
668,1.0682
670,1.0693
672,1.0699
674,1.0697
676,1.0682
678,1.0657
680,1.0607
682,1.0526
684,1.0406
686,1.0237
688,1.0018
690,0.9755
692,0.9455
694,0.9115
696,0.8765
698,0.8397
700,0.8021
702,0.7656
704,0.7292
706,0.6944
708,0.6613
710,0.6293
712,0.5997
714,0.5718
716,0.5449
718,0.5206
720,0.4976
722,0.4757
724,0.456
726,0.4373
728,0.4198
730,0.4041
732,0.3894
734,0.3759
736,0.3636
738,0.3523
740,0.342
742,0.3328
744,0.3243
746,0.3168
748,0.3101
750,0.304
752,0.2987
754,0.294
756,0.2896
758,0.2859
760,0.2824
762,0.2792
764,0.2765
766,0.274
768,0.2716
770,0.2694
772,0.2674
774,0.2657
776,0.2642
778,0.2628
780,0.2616
782,0.2605
784,0.2593
786,0.2583
788,0.2573
790,0.2563
792,0.2553
794,0.2544
796,0.2535
798,0.2526
800,0.2517
802,0.2509
804,0.25
806,0.2492
808,0.2484
810,0.2475
812,0.2467
814,0.2458
816,0.245
818,0.2441
820,0.2433
822,0.2424
824,0.2415
826,0.2407
828,0.2398
830,0.2388
832,0.238
834,0.2371
836,0.2362
838,0.2353
840,0.2344
842,0.2336
844,0.2327
846,0.2319
848,0.2311
850,0.2303
852,0.2295
854,0.2287
856,0.228
858,0.2273
860,0.2266
862,0.2259
864,0.2253
866,0.2247
868,0.224
870,0.2235
872,0.2229
874,0.2223
876,0.2217
878,0.2212
880,0.2206
882,0.2201
884,0.2196
886,0.2191
888,0.2186
890,0.2182
892,0.2178
894,0.2175
896,0.2171
898,0.2168
900,0.2164
902,0.2161
904,0.2158
906,0.2154
908,0.2151
910,0.2147
912,0.2143
914,0.2139
916,0.2135
918,0.2131
920,0.2126
922,0.2121
924,0.2115
926,0.211
928,0.2104
930,0.2098
932,0.2092
934,0.2087
936,0.2081
938,0.2075
940,0.2069
942,0.2064
944,0.2058
946,0.2053
948,0.2049
950,0.2044
952,0.204
954,0.2037
956,0.2034
958,0.2032
960,0.2031
962,0.2031
964,0.2031
966,0.2033
968,0.2036
970,0.2039
972,0.2043
974,0.2048
976,0.2053
978,0.2058
980,0.2062
982,0.2065
984,0.2068
986,0.207
988,0.2071
990,0.2071
992,0.207
994,0.2069
996,0.2067
998,0.2065
1000,0.2062
1002,0.2059
1004,0.2056
1006,0.2053
1008,0.205
1010,0.2047
1012,0.2044
1014,0.2041
1016,0.2038
1018,0.2034
1020,0.2031
1022,0.2028
1024,0.2024
1026,0.2021
1028,0.2017
1030,0.2014
1032,0.201
1034,0.2007
1036,0.2003
1038,0.2
1040,0.1997
1042,0.1994
1044,0.1991
1046,0.1988
1048,0.1985
1050,0.1983
1052,0.198
1054,0.1978
1056,0.1976
1058,0.1973
1060,0.197
1062,0.1967
1064,0.1965
1066,0.1962
1068,0.196
1070,0.1958
1072,0.1956
1074,0.1954
1076,0.1952
1078,0.195
1080,0.1949
1082,0.1948
1084,0.1946
1086,0.1945
1088,0.1944
1090,0.1943
1092,0.1942
1094,0.1941
1096,0.1941
1098,0.1941
1100,0.1915
1102,0.1917
1104,0.1919
1106,0.1921
1108,0.1924
1110,0.1928
1112,0.1932
1114,0.1938
1116,0.1944
1118,0.195
1120,0.1958
1122,0.1966
1124,0.1976
1126,0.1986
1128,0.1997
1130,0.201
1132,0.2022
1134,0.2035
1136,0.2048
1138,0.2061
1140,0.2073
1142,0.2085
1144,0.2096
1146,0.2108
1148,0.2119
1150,0.213
1152,0.2143
1154,0.2157
1156,0.2172
1158,0.2189
1160,0.2207
1162,0.2226
1164,0.2245
1166,0.2265
1168,0.2284
1170,0.2303
1172,0.2322
1174,0.2342
1176,0.2362
1178,0.2382
1180,0.2403
1182,0.2424
1184,0.2445
1186,0.2465
1188,0.2483
1190,0.25
1192,0.2514
1194,0.2527
1196,0.2537
1198,0.2545
1200,0.2552
1202,0.2555
1204,0.2557
1206,0.2555
1208,0.2553
1210,0.2548
1212,0.2541
1214,0.2533
1216,0.2523
1218,0.2512
1220,0.2499
1222,0.2486
1224,0.2473
1226,0.246
1228,0.2448
1230,0.2436
1232,0.2425
1234,0.2416
1236,0.2406
1238,0.2397
1240,0.2389
1242,0.2381
1244,0.2374
1246,0.2368
1248,0.2362
1250,0.2357
1252,0.2353
1254,0.235
1256,0.2348
1258,0.2346
1260,0.2345
1262,0.2344
1264,0.2343
1266,0.2343
1268,0.2343
1270,0.2343
1272,0.2342
1274,0.2341
1276,0.2339
1278,0.2337
1280,0.2335
1282,0.2331
1284,0.2328
1286,0.2324
1288,0.2321
1290,0.2318
1292,0.2315
1294,0.2312
1296,0.231
1298,0.2308
1300,0.2307
1302,0.2306
1304,0.2305
1306,0.2305
1308,0.2306
1310,0.2307
1312,0.2308
1314,0.231
1316,0.2312
1318,0.2315
1320,0.2318
1322,0.2322
1324,0.2327
1326,0.2333
1328,0.2341
1330,0.235
1332,0.236
1334,0.2372
1336,0.2385
1338,0.2402
1340,0.242
1342,0.244
1344,0.2464
1346,0.2489
1348,0.2517
1350,0.2547
1352,0.2576
1354,0.2608
1356,0.2638
1358,0.2668
1360,0.2698
1362,0.2725
1364,0.2752
1366,0.2777
1368,0.28
1370,0.2824
1372,0.2845
1374,0.2866
1376,0.2886
1378,0.2905
1380,0.2925
1382,0.2943
1384,0.2962
1386,0.298
1388,0.2998
1390,0.3017
1392,0.3036
1394,0.3056
1396,0.308
1398,0.3107
1400,0.3141
1402,0.3182
1404,0.323
1406,0.3288
1408,0.3355
1410,0.3429
1412,0.3515
1414,0.3605
1416,0.3703
1418,0.3807
1420,0.3909
1422,0.4015
1424,0.4118
1426,0.4217
1428,0.4313
1430,0.4399
1432,0.4479
1434,0.4551
1436,0.4614
1438,0.4669
1440,0.4715
1442,0.4753
1444,0.4785
1446,0.4808
1448,0.4827
1450,0.484
1452,0.4849
1454,0.4854
1456,0.4857
1458,0.4858
1460,0.4857
1462,0.4855
1464,0.4851
1466,0.4848
1468,0.4844
1470,0.484
1472,0.4836
1474,0.4833
1476,0.483
1478,0.4829
1480,0.4828
1482,0.4828
1484,0.4829
1486,0.483
1488,0.4831
1490,0.4831
1492,0.4831
1494,0.4829
1496,0.4825
1498,0.4821
1500,0.4815
1502,0.4808
1504,0.4801
1506,0.4793
1508,0.4784
1510,0.4774
1512,0.4764
1514,0.4754
1516,0.4742
1518,0.4732
1520,0.4721
1522,0.4711
1524,0.4701
1526,0.4692
1528,0.4685
1530,0.4678
1532,0.4671
1534,0.4666
1536,0.4661
1538,0.4656
1540,0.4652
1542,0.4648
1544,0.4644
1546,0.4641
1548,0.4638
1550,0.4635
1552,0.4633
1554,0.4632
1556,0.4631
1558,0.4631
1560,0.4631
1562,0.4632
1564,0.4633
1566,0.4635
1568,0.4636
1570,0.4636
1572,0.4636
1574,0.4635
1576,0.4634
1578,0.4631
1580,0.4628
1582,0.4624
1584,0.4619
1586,0.4614
1588,0.4608
1590,0.4601
1592,0.4593
1594,0.4584
1596,0.4575
1598,0.4565
1600,0.4555
1602,0.4545
1604,0.4535
1606,0.4524
1608,0.4514
1610,0.4505
1612,0.4495
1614,0.4487
1616,0.448
1618,0.4473
1620,0.4467
1622,0.4463
1624,0.446
1626,0.4458
1628,0.4457
1630,0.4456
1632,0.4455
1634,0.4454
1636,0.4452
1638,0.445
1640,0.4448
1642,0.4447
1644,0.4448
1646,0.4452
1648,0.446
1650,0.4471
1652,0.4485
1654,0.4503
1656,0.4522
1658,0.4544
1660,0.4565
1662,0.4586
1664,0.4606
1666,0.4625
1668,0.4643
1670,0.4661
1672,0.4678
1674,0.4696
1676,0.4713
1678,0.4729
1680,0.4744
1682,0.4759
1684,0.4777
1686,0.4798
1688,0.4825
1690,0.4855
1692,0.4886
1694,0.4914
1696,0.4939
1698,0.4963
1700,0.4988
1702,0.5017
1704,0.5048
1706,0.508
1708,0.5112
1710,0.5139
1712,0.5163
1714,0.5182
1716,0.5196
1718,0.5207
1720,0.5213
1722,0.5216
1724,0.5217
1726,0.5213
1728,0.5206
1730,0.5194
1732,0.5179
1734,0.5163
1736,0.5147
1738,0.5133
1740,0.5122
1742,0.5114
1744,0.511
1746,0.5108
1748,0.5107
1750,0.5107
1752,0.5104
1754,0.51
1756,0.5094
1758,0.5086
1760,0.5075
1762,0.5062
1764,0.5046
1766,0.5029
1768,0.501
1770,0.4991
1772,0.4973
1774,0.4956
1776,0.4939
1778,0.4923
1780,0.4907
1782,0.4892
1784,0.4879
1786,0.4868
1788,0.4858
1790,0.4849
1792,0.4842
1794,0.4834
1796,0.4827
1798,0.4821
1800,0.4815
1802,0.4809
1804,0.4803
1806,0.4798
1808,0.4793
1810,0.4789
1812,0.4784
1814,0.478
1816,0.4775
1818,0.477
1820,0.4765
1822,0.4758
1824,0.4751
1826,0.4742
1828,0.4732
1830,0.4721
1832,0.4712
1834,0.4703
1836,0.4695
1838,0.4686
1840,0.4677
1842,0.4667
1844,0.4656
1846,0.4645
1848,0.4635
1850,0.4628
1852,0.4624
1854,0.4621
1856,0.4618
1858,0.4616
1860,0.4615
1862,0.4614
1864,0.4614
1866,0.4614
1868,0.4615
1870,0.4618
1872,0.4621
1874,0.4626
1876,0.4634
1878,0.4644
1880,0.4657
1882,0.4673
1884,0.4693
1886,0.4717
1888,0.4746
1890,0.478
1892,0.4821
1894,0.4867
1896,0.4918
1898,0.4976
1900,0.5036
1902,0.5102
1904,0.5167
1906,0.5232
1908,0.5296
1910,0.5356
1912,0.5413
1914,0.5465
1916,0.5513
1918,0.5554
1920,0.559
1922,0.5622
1924,0.5648
1926,0.567
1928,0.5688
1930,0.5703
1932,0.5714
1934,0.5722
1936,0.5727
1938,0.5731
1940,0.5733
1942,0.5734
1944,0.5733
1946,0.5732
1948,0.573
1950,0.5728
1952,0.5727
1954,0.5726
1956,0.5725
1958,0.5726
1960,0.5728
1962,0.5731
1964,0.5737
1966,0.5744
1968,0.5752
1970,0.5761
1972,0.5769
1974,0.5777
1976,0.5784
1978,0.579
1980,0.5795
1982,0.5801
1984,0.5806
1986,0.5812
1988,0.5818
1990,0.5826
1992,0.5834
1994,0.5845
1996,0.5857
1998,0.5872
2000,0.5889
2002,0.5909
2004,0.5932
2006,0.5957
2008,0.5986
2010,0.6019
2012,0.6055
2014,0.6096
2016,0.614
2018,0.619
2020,0.6243
2022,0.63
2024,0.636
2026,0.6423
2028,0.6489
2030,0.6556
2032,0.6625
2034,0.6694
2036,0.6766
2038,0.6837
2040,0.6909
2042,0.6981
2044,0.7051
2046,0.712
2048,0.7185
2050,0.7246
2052,0.7302
2054,0.7354
2056,0.7401
2058,0.7442
2060,0.7478
2062,0.7511
2064,0.7541
2066,0.7567
2068,0.7593
2070,0.7617
2072,0.7641
2074,0.7664
2076,0.7688
2078,0.7711
2080,0.7734
2082,0.7757
2084,0.778
2086,0.7803
2088,0.7826
2090,0.7849
2092,0.7872
2094,0.7894
2096,0.7916
2098,0.7937
2100,0.7957
2102,0.7977
2104,0.7995
2106,0.8014
2108,0.8031
2110,0.8048
2112,0.8064
2114,0.808
2116,0.8095
2118,0.811
2120,0.8124
2122,0.8138
2124,0.815
2126,0.8162
2128,0.8172
2130,0.8182
2132,0.8192
2134,0.82
2136,0.8207
2138,0.8213
2140,0.8217
2142,0.8218
2144,0.8217
2146,0.8213
2148,0.8208
2150,0.8201
2152,0.8193
2154,0.8184
2156,0.8174
2158,0.8162
2160,0.8149
2162,0.8135
2164,0.812
2166,0.8103
2168,0.8085
2170,0.8065
2172,0.8045
2174,0.8023
2176,0.8
2178,0.7976
2180,0.7951
2182,0.7926
2184,0.79
2186,0.7873
2188,0.7845
2190,0.7818
2192,0.779
2194,0.7763
2196,0.7736
2198,0.7709
2200,0.7684
2202,0.7658
2204,0.7633
2206,0.7609
2208,0.7586
2210,0.7563
2212,0.7543
2214,0.7523
2216,0.7505
2218,0.749
2220,0.7477
2222,0.7468
2224,0.7463
2226,0.7462
2228,0.7466
2230,0.7475
2232,0.7489
2234,0.7509
2236,0.7535
2238,0.7566
2240,0.7603
2242,0.7644
2244,0.769
2246,0.774
2248,0.7795
2250,0.7853
2252,0.7914
2254,0.7976
2256,0.804
2258,0.8103
2260,0.8166
2262,0.8227
2264,0.8285
2266,0.8341
2268,0.8391
2270,0.8435
2272,0.8473
2274,0.8505
2276,0.853
2278,0.8551
2280,0.8569
2282,0.8585
2284,0.8602
2286,0.8621
2288,0.8641
2290,0.8666
2292,0.8694
2294,0.8727
2296,0.8763
2298,0.8801
2300,0.8838
2302,0.8874
2304,0.8904
2306,0.8928
2308,0.8942
2310,0.8946
2312,0.894
2314,0.8923
2316,0.8901
2318,0.888
2320,0.8865
2322,0.8857
2324,0.8856
2326,0.8861
2328,0.8869
2330,0.8878
2332,0.8886
2334,0.8896
2336,0.8906
2338,0.8916
2340,0.8927
2342,0.8937
2344,0.8944
2346,0.8947
2348,0.8943
2350,0.8932
2352,0.8912
2354,0.8886
2356,0.8855
2358,0.8825
2360,0.8796
2362,0.8769
2364,0.8744
2366,0.8723
2368,0.8703
2370,0.8687
2372,0.8673
2374,0.8665
2376,0.8659
2378,0.8655
2380,0.8652
2382,0.865
2384,0.8647
2386,0.8643
2388,0.8636
2390,0.8628
2392,0.8618
2394,0.8609
2396,0.8599
2398,0.8591
2400,0.8586
2402,0.8583
2404,0.8585
2406,0.8591
2408,0.8597
2410,0.8607
2412,0.8617
2414,0.863
2416,0.8644
2418,0.866
2420,0.8678
2422,0.8698
2424,0.872
2426,0.8744
2428,0.877
2430,0.8799
2432,0.8829
2434,0.8863
2436,0.89
2438,0.8941
2440,0.8982
2442,0.9027
2444,0.9073
2446,0.9119
2448,0.9166
2450,0.9215
2452,0.9265
2454,0.9315
2456,0.9366
2458,0.9416
2460,0.9464
2462,0.9511
2464,0.9553
2466,0.959
2468,0.9627
2470,0.966
2472,0.9692
2474,0.9723
2476,0.9751
2478,0.9777
2480,0.98
2482,0.9823
2484,0.9841
2486,0.9858
2488,0.9872
2490,0.9884
2492,0.9893
2494,0.9901
2496,0.9908
2498,0.9912
