#---
#spectra_types: PA
#resources:
#  fields:
#  - name: wavelengths
#    type: number
#  - name: accp|PSME_SC70_dry|NA.001
#    type: number
#
#---
wavelengths,accp|PSME_SC70_dry|NA.001
400,0.9662
402,0.9827
404,0.9961
406,1.0048
408,1.0141
410,1.0208
412,1.0245
414,1.0281
416,1.0312
418,1.0346
420,1.0365
422,1.04
424,1.0416
426,1.0436
428,1.0454
430,1.047
432,1.0485
434,1.0492
436,1.0504
438,1.0511
440,1.0511
442,1.0516
444,1.052
446,1.0522
448,1.0522
450,1.0526
452,1.0522
454,1.0524
456,1.0526
458,1.0519
460,1.0518
462,1.051
464,1.0499
466,1.0483
468,1.0463
470,1.0435
472,1.0407
474,1.0368
476,1.033
478,1.0289
480,1.0247
482,1.02
484,1.0157
486,1.0111
488,1.0059
490,1.0015
492,0.9963
494,0.9908
496,0.9854
498,0.9787
500,0.9732
502,0.9664
504,0.9588
506,0.9505
508,0.942
510,0.9329
512,0.9234
514,0.9155
516,0.9062
518,0.8986
520,0.8919
522,0.886
524,0.8823
526,0.8784
528,0.8754
530,0.8739
532,0.8724
534,0.8721
536,0.8718
538,0.872
540,0.8724
542,0.8728
544,0.8724
546,0.8726
548,0.8728
550,0.8729
552,0.8734
554,0.8741
556,0.8755
558,0.8777
560,0.8799
562,0.8831
564,0.8873
566,0.8915
568,0.8962
570,0.9017
572,0.9066
574,0.912
576,0.9172
578,0.9219
580,0.9269
582,0.9314
584,0.9357
586,0.9401
588,0.9434
590,0.9466
592,0.9506
594,0.954
596,0.9575
598,0.9612
600,0.9653
602,0.9693
604,0.9737
606,0.9781
608,0.9827
610,0.9872
612,0.9914
614,0.9953
616,0.9991
618,1.002
620,1.0047
622,1.0068
624,1.0083
626,1.0096
628,1.0103
630,1.0109
632,1.0121
634,1.0142
636,1.0173
638,1.0217
640,1.0267
642,1.0323
644,1.038
646,1.0436
648,1.0495
650,1.0554
652,1.0614
654,1.0678
656,1.0735
658,1.0791
660,1.0842
662,1.0884
664,1.0921
666,1.0952
668,1.0973
670,1.0985
672,1.0988
674,1.0983
676,1.0962
678,1.0927
680,1.0862
682,1.076
684,1.0614
686,1.0414
688,1.0159
690,0.9862
692,0.9526
694,0.9154
696,0.8776
698,0.8385
700,0.7991
702,0.7612
704,0.7238
706,0.6883
708,0.6548
710,0.6228
712,0.5932
714,0.5655
716,0.5389
718,0.5151
720,0.4925
722,0.4711
724,0.4521
726,0.434
728,0.4173
730,0.4023
732,0.3883
734,0.3755
736,0.3639
738,0.3532
740,0.3436
742,0.335
744,0.327
746,0.32
748,0.3138
750,0.308
752,0.3031
754,0.2987
756,0.2946
758,0.2911
760,0.2877
762,0.2847
764,0.282
766,0.2795
768,0.2772
770,0.2751
772,0.2732
774,0.2716
776,0.2701
778,0.2687
780,0.2675
782,0.2664
784,0.2653
786,0.2642
788,0.2632
790,0.2621
792,0.2612
794,0.2602
796,0.2593
798,0.2584
800,0.2575
802,0.2567
804,0.2558
806,0.2549
808,0.2541
810,0.2532
812,0.2523
814,0.2515
816,0.2506
818,0.2497
820,0.2488
822,0.2479
824,0.247
826,0.2461
828,0.2452
830,0.2443
832,0.2434
834,0.2424
836,0.2415
838,0.2406
840,0.2397
842,0.2388
844,0.238
846,0.2371
848,0.2363
850,0.2354
852,0.2346
854,0.2338
856,0.2331
858,0.2324
860,0.2317
862,0.231
864,0.2303
866,0.2297
868,0.229
870,0.2284
872,0.2278
874,0.2272
876,0.2267
878,0.2261
880,0.2256
882,0.225
884,0.2245
886,0.224
888,0.2235
890,0.2231
892,0.2227
894,0.2224
896,0.222
898,0.2216
900,0.2213
902,0.221
904,0.2207
906,0.2203
908,0.22
910,0.2196
912,0.2193
914,0.2189
916,0.2185
918,0.218
920,0.2175
922,0.217
924,0.2165
926,0.2159
928,0.2153
930,0.2147
932,0.2141
934,0.2135
936,0.2129
938,0.2124
940,0.2118
942,0.2112
944,0.2107
946,0.2102
948,0.2097
950,0.2093
952,0.2089
954,0.2086
956,0.2083
958,0.208
960,0.2079
962,0.2078
964,0.2079
966,0.208
968,0.2082
970,0.2085
972,0.2089
974,0.2093
976,0.2097
978,0.2101
980,0.2104
982,0.2107
984,0.2109
986,0.2111
988,0.2111
990,0.2111
992,0.211
994,0.2109
996,0.2107
998,0.2105
1000,0.2102
1002,0.21
1004,0.2097
1006,0.2094
1008,0.2091
1010,0.2088
1012,0.2085
1014,0.2082
1016,0.2079
1018,0.2076
1020,0.2073
1022,0.2069
1024,0.2066
1026,0.2063
1028,0.2059
1030,0.2056
1032,0.2053
1034,0.205
1036,0.2046
1038,0.2043
1040,0.204
1042,0.2037
1044,0.2034
1046,0.2032
1048,0.2029
1050,0.2026
1052,0.2024
1054,0.2021
1056,0.2019
1058,0.2016
1060,0.2014
1062,0.2011
1064,0.2009
1066,0.2006
1068,0.2004
1070,0.2002
1072,0.2
1074,0.1998
1076,0.1997
1078,0.1995
1080,0.1994
1082,0.1992
1084,0.1991
1086,0.1989
1088,0.1988
1090,0.1987
1092,0.1987
1094,0.1986
1096,0.1986
1098,0.1986
1100,0.1956
1102,0.1958
1104,0.196
1106,0.1962
1108,0.1965
1110,0.1969
1112,0.1973
1114,0.1979
1116,0.1984
1118,0.1991
1120,0.1998
1122,0.2006
1124,0.2015
1126,0.2024
1128,0.2035
1130,0.2047
1132,0.2059
1134,0.2072
1136,0.2085
1138,0.2097
1140,0.211
1142,0.2122
1144,0.2134
1146,0.2145
1148,0.2157
1150,0.2169
1152,0.2182
1154,0.2196
1156,0.2212
1158,0.2229
1160,0.2247
1162,0.2266
1164,0.2284
1166,0.2303
1168,0.2322
1170,0.234
1172,0.2359
1174,0.2377
1176,0.2396
1178,0.2416
1180,0.2436
1182,0.2457
1184,0.2478
1186,0.2498
1188,0.2516
1190,0.2533
1192,0.2548
1194,0.2561
1196,0.2573
1198,0.2581
1200,0.2588
1202,0.2592
1204,0.2594
1206,0.2593
1208,0.259
1210,0.2584
1212,0.2577
1214,0.2569
1216,0.2558
1218,0.2546
1220,0.2532
1222,0.2518
1224,0.2504
1226,0.249
1228,0.2476
1230,0.2464
1232,0.2453
1234,0.2442
1236,0.2432
1238,0.2423
1240,0.2415
1242,0.2407
1244,0.2399
1246,0.2393
1248,0.2387
1250,0.2382
1252,0.2378
1254,0.2374
1256,0.2372
1258,0.237
1260,0.2369
1262,0.2368
1264,0.2367
1266,0.2367
1268,0.2366
1270,0.2365
1272,0.2365
1274,0.2363
1276,0.2361
1278,0.2359
1280,0.2356
1282,0.2353
1284,0.235
1286,0.2347
1288,0.2343
1290,0.234
1292,0.2337
1294,0.2334
1296,0.2332
1298,0.233
1300,0.2329
1302,0.2328
1304,0.2328
1306,0.2328
1308,0.2328
1310,0.2329
1312,0.2331
1314,0.2333
1316,0.2335
1318,0.2338
1320,0.2342
1322,0.2346
1324,0.2352
1326,0.2358
1328,0.2366
1330,0.2375
1332,0.2385
1334,0.2398
1336,0.2411
1338,0.2427
1340,0.2445
1342,0.2465
1344,0.2489
1346,0.2513
1348,0.254
1350,0.2569
1352,0.2598
1354,0.2628
1356,0.2658
1358,0.2687
1360,0.2716
1362,0.2743
1364,0.2769
1366,0.2794
1368,0.2817
1370,0.284
1372,0.2861
1374,0.2881
1376,0.2901
1378,0.292
1380,0.2939
1382,0.2958
1384,0.2977
1386,0.2996
1388,0.3014
1390,0.3032
1392,0.3051
1394,0.3071
1396,0.3095
1398,0.3122
1400,0.3155
1402,0.3196
1404,0.3244
1406,0.3301
1408,0.3367
1410,0.344
1412,0.3523
1414,0.361
1416,0.3704
1418,0.3804
1420,0.3903
1422,0.4005
1424,0.4104
1426,0.4198
1428,0.429
1430,0.4372
1432,0.4449
1434,0.4518
1436,0.4578
1438,0.463
1440,0.4674
1442,0.471
1444,0.474
1446,0.4762
1448,0.4779
1450,0.4792
1452,0.4801
1454,0.4806
1456,0.481
1458,0.4811
1460,0.4811
1462,0.481
1464,0.4808
1466,0.4806
1468,0.4803
1470,0.4799
1472,0.4796
1474,0.4793
1476,0.4791
1478,0.4789
1480,0.4788
1482,0.4787
1484,0.4787
1486,0.4787
1488,0.4787
1490,0.4787
1492,0.4786
1494,0.4783
1496,0.4779
1498,0.4775
1500,0.4769
1502,0.4763
1504,0.4756
1506,0.4748
1508,0.474
1510,0.4731
1512,0.4721
1514,0.4712
1516,0.4701
1518,0.4691
1520,0.4681
1522,0.4671
1524,0.4663
1526,0.4655
1528,0.4647
1530,0.4641
1532,0.4635
1534,0.463
1536,0.4626
1538,0.4622
1540,0.4618
1542,0.4614
1544,0.4611
1546,0.4608
1548,0.4606
1550,0.4604
1552,0.4602
1554,0.4601
1556,0.46
1558,0.46
1560,0.4601
1562,0.4602
1564,0.4603
1566,0.4604
1568,0.4605
1570,0.4605
1572,0.4605
1574,0.4604
1576,0.4602
1578,0.4599
1580,0.4596
1582,0.4592
1584,0.4587
1586,0.4581
1588,0.4575
1590,0.4568
1592,0.456
1594,0.4551
1596,0.4542
1598,0.4531
1600,0.4521
1602,0.4511
1604,0.45
1606,0.4489
1608,0.4478
1610,0.4468
1612,0.4459
1614,0.445
1616,0.4442
1618,0.4435
1620,0.4429
1622,0.4425
1624,0.4422
1626,0.4421
1628,0.4421
1630,0.4421
1632,0.4421
1634,0.442
1636,0.4418
1638,0.4414
1640,0.4411
1642,0.4408
1644,0.4408
1646,0.441
1648,0.4415
1650,0.4425
1652,0.4437
1654,0.4454
1656,0.4472
1658,0.4493
1660,0.4514
1662,0.4536
1664,0.4557
1666,0.4577
1668,0.4596
1670,0.4615
1672,0.4634
1674,0.4652
1676,0.4671
1678,0.4689
1680,0.4706
1682,0.4723
1684,0.4742
1686,0.4767
1688,0.4797
1690,0.4831
1692,0.4865
1694,0.4896
1696,0.4924
1698,0.4951
1700,0.4979
1702,0.5011
1704,0.5046
1706,0.5081
1708,0.5116
1710,0.5145
1712,0.5172
1714,0.5192
1716,0.5207
1718,0.5217
1720,0.5223
1722,0.5225
1724,0.5224
1726,0.5218
1728,0.5208
1730,0.5194
1732,0.5177
1734,0.5157
1736,0.5139
1738,0.5123
1740,0.5111
1742,0.5104
1744,0.5101
1746,0.5101
1748,0.5103
1750,0.5105
1752,0.5105
1754,0.5103
1756,0.5099
1758,0.5092
1760,0.5083
1762,0.507
1764,0.5055
1766,0.5038
1768,0.502
1770,0.5001
1772,0.4983
1774,0.4967
1776,0.495
1778,0.4934
1780,0.4918
1782,0.4903
1784,0.4888
1786,0.4875
1788,0.4864
1790,0.4854
1792,0.4845
1794,0.4836
1796,0.4828
1798,0.482
1800,0.4813
1802,0.4806
1804,0.48
1806,0.4794
1808,0.4788
1810,0.4783
1812,0.4778
1814,0.4773
1816,0.4768
1818,0.4763
1820,0.4757
1822,0.475
1824,0.4742
1826,0.4733
1828,0.4723
1830,0.4712
1832,0.4703
1834,0.4694
1836,0.4686
1838,0.4678
1840,0.4669
1842,0.4658
1844,0.4647
1846,0.4636
1848,0.4627
1850,0.462
1852,0.4616
1854,0.4613
1856,0.4611
1858,0.4609
1860,0.4608
1862,0.4607
1864,0.4607
1866,0.4607
1868,0.4609
1870,0.4612
1872,0.4616
1874,0.4623
1876,0.4631
1878,0.4642
1880,0.4656
1882,0.4673
1884,0.4694
1886,0.472
1888,0.4752
1890,0.4789
1892,0.4833
1894,0.4882
1896,0.4937
1898,0.4998
1900,0.5062
1902,0.5129
1904,0.5196
1906,0.5264
1908,0.5327
1910,0.5388
1912,0.5444
1914,0.5495
1916,0.5542
1918,0.5581
1920,0.5616
1922,0.5646
1924,0.567
1926,0.569
1928,0.5705
1930,0.5717
1932,0.5725
1934,0.573
1936,0.5732
1938,0.5732
1940,0.5731
1942,0.5728
1944,0.5723
1946,0.5718
1948,0.5712
1950,0.5706
1952,0.57
1954,0.5694
1956,0.5689
1958,0.5684
1960,0.568
1962,0.5677
1964,0.5675
1966,0.5674
1968,0.5675
1970,0.5675
1972,0.5676
1974,0.5677
1976,0.5678
1978,0.5679
1980,0.568
1982,0.5682
1984,0.5684
1986,0.5688
1988,0.5693
1990,0.57
1992,0.5709
1994,0.572
1996,0.5733
1998,0.5748
2000,0.5765
2002,0.5785
2004,0.5808
2006,0.5833
2008,0.5862
2010,0.5894
2012,0.593
2014,0.597
2016,0.6013
2018,0.6062
2020,0.6114
2022,0.617
2024,0.6229
2026,0.6291
2028,0.6356
2030,0.6422
2032,0.649
2034,0.6558
2036,0.6629
2038,0.6699
2040,0.677
2042,0.684
2044,0.6909
2046,0.6977
2048,0.7041
2050,0.7102
2052,0.7158
2054,0.721
2056,0.7257
2058,0.7298
2060,0.7335
2062,0.7368
2064,0.7398
2066,0.7426
2068,0.7451
2070,0.7476
2072,0.75
2074,0.7523
2076,0.7546
2078,0.7568
2080,0.759
2082,0.7612
2084,0.7633
2086,0.7654
2088,0.7675
2090,0.7695
2092,0.7716
2094,0.7735
2096,0.7753
2098,0.7771
2100,0.7788
2102,0.7804
2104,0.782
2106,0.7834
2108,0.7848
2110,0.7862
2112,0.7875
2114,0.7887
2116,0.7899
2118,0.7911
2120,0.7922
2122,0.7932
2124,0.7942
2126,0.795
2128,0.7958
2130,0.7965
2132,0.7971
2134,0.7977
2136,0.7982
2138,0.7985
2140,0.7987
2142,0.7986
2144,0.7984
2146,0.7978
2148,0.7971
2150,0.7963
2152,0.7954
2154,0.7944
2156,0.7933
2158,0.792
2160,0.7906
2162,0.789
2164,0.7874
2166,0.7857
2168,0.7838
2170,0.7818
2172,0.7797
2174,0.7776
2176,0.7752
2178,0.7728
2180,0.7704
2182,0.7679
2184,0.7653
2186,0.7627
2188,0.7599
2190,0.7573
2192,0.7546
2194,0.7521
2196,0.7495
2198,0.7471
2200,0.7448
2202,0.7425
2204,0.7404
2206,0.7383
2208,0.7364
2210,0.7345
2212,0.7329
2214,0.7314
2216,0.7301
2218,0.7291
2220,0.7284
2222,0.7281
2224,0.7282
2226,0.7287
2228,0.7297
2230,0.7312
2232,0.7333
2234,0.736
2236,0.7392
2238,0.743
2240,0.7473
2242,0.752
2244,0.7571
2246,0.7626
2248,0.7685
2250,0.7746
2252,0.7811
2254,0.7876
2256,0.7942
2258,0.8008
2260,0.8074
2262,0.8137
2264,0.8198
2266,0.8257
2268,0.8309
2270,0.8356
2272,0.8394
2274,0.8426
2276,0.8451
2278,0.8472
2280,0.849
2282,0.8507
2284,0.8523
2286,0.8543
2288,0.8565
2290,0.8592
2292,0.8622
2294,0.8657
2296,0.8696
2298,0.8737
2300,0.8778
2302,0.8817
2304,0.8851
2306,0.8877
2308,0.8894
2310,0.8899
2312,0.8891
2314,0.8873
2316,0.8849
2318,0.8826
2320,0.8809
2322,0.8801
2324,0.88
2326,0.8804
2328,0.8811
2330,0.8819
2332,0.8827
2334,0.8836
2336,0.8844
2338,0.8854
2340,0.8864
2342,0.8874
2344,0.8882
2346,0.8887
2348,0.8885
2350,0.8875
2352,0.8855
2354,0.883
2356,0.88
2358,0.877
2360,0.874
2362,0.8714
2364,0.869
2366,0.8669
2368,0.8648
2370,0.8631
2372,0.8618
2374,0.8609
2376,0.8603
2378,0.86
2380,0.8597
2382,0.8596
2384,0.8593
2386,0.8589
2388,0.8583
2390,0.8576
2392,0.8567
2394,0.8557
2396,0.8547
2398,0.8539
2400,0.8534
2402,0.8533
2404,0.8535
2406,0.854
2408,0.8547
2410,0.8555
2412,0.8566
2414,0.8579
2416,0.8593
2418,0.8609
2420,0.8627
2422,0.8648
2424,0.8671
2426,0.8695
2428,0.8721
2430,0.8749
2432,0.878
2434,0.8813
2436,0.885
2438,0.8889
2440,0.8931
2442,0.8973
2444,0.9018
2446,0.9064
2448,0.911
2450,0.9158
2452,0.9207
2454,0.9258
2456,0.931
2458,0.936
2460,0.941
2462,0.9455
2464,0.9497
2466,0.9536
2468,0.9571
2470,0.9604
2472,0.9635
2474,0.9664
2476,0.9692
2478,0.9717
2480,0.974
2482,0.9762
2484,0.978
2486,0.9795
2488,0.9808
2490,0.9818
2492,0.9825
2494,0.9832
2496,0.9835
2498,0.9837
