#---
#spectra_types: R
#resources:
#  fields:
#  - name: wavelengths
#    type: number
#  - name: accp|JR116|1992.001
#    type: number
#
#---
wavelengths,accp|JR116|1992.001
400,0.091
402,0.086
404,0.082
406,0.078
408,0.075
410,0.073
412,0.07
414,0.069
416,0.067
418,0.066
420,0.065
422,0.064
424,0.064
426,0.063
428,0.063
430,0.062
432,0.062
434,0.062
436,0.062
438,0.062
440,0.062
442,0.062
444,0.063
446,0.063
448,0.063
450,0.064
452,0.064
454,0.065
456,0.065
458,0.065
460,0.065
462,0.066
464,0.066
466,0.066
468,0.067
470,0.067
472,0.067
474,0.068
476,0.068
478,0.069
480,0.069
482,0.07
484,0.071
486,0.071
488,0.072
490,0.073
492,0.074
494,0.075
496,0.075
498,0.076
500,0.077
502,0.078
504,0.079
506,0.08
508,0.082
510,0.083
512,0.085
514,0.087
516,0.09
518,0.093
520,0.096
522,0.099
524,0.103
526,0.106
528,0.11
530,0.113
532,0.116
534,0.119
536,0.121
538,0.123
540,0.125
542,0.127
544,0.128
546,0.129
548,0.13
550,0.13
552,0.131
554,0.131
556,0.13
558,0.129
560,0.128
562,0.126
564,0.125
566,0.122
568,0.12
570,0.117
572,0.114
574,0.111
576,0.108
578,0.105
580,0.103
582,0.1
584,0.098
586,0.096
588,0.094
590,0.093
592,0.091
594,0.09
596,0.089
598,0.088
600,0.087
602,0.086
604,0.084
606,0.083
608,0.082
610,0.08
612,0.079
614,0.078
616,0.076
618,0.075
620,0.074
622,0.074
624,0.073
626,0.072
628,0.072
630,0.072
632,0.072
634,0.072
636,0.071
638,0.071
640,0.07
642,0.07
644,0.069
646,0.068
648,0.067
650,0.066
652,0.065
654,0.064
656,0.064
658,0.063
660,0.062
662,0.061
664,0.06
666,0.06
668,0.059
670,0.059
672,0.059
674,0.059
676,0.059
678,0.059
680,0.06
682,0.06
684,0.062
686,0.064
688,0.068
690,0.072
692,0.079
694,0.087
696,0.097
698,0.108
700,0.121
702,0.136
704,0.152
706,0.168
708,0.186
710,0.205
712,0.223
714,0.243
716,0.262
718,0.281
720,0.3
722,0.319
724,0.336
726,0.354
728,0.369
730,0.384
732,0.398
734,0.41
736,0.421
738,0.431
740,0.44
742,0.447
744,0.454
746,0.46
748,0.464
750,0.468
752,0.472
754,0.474
756,0.477
758,0.479
760,0.48
762,0.481
764,0.482
766,0.484
768,0.484
770,0.485
772,0.486
774,0.487
776,0.487
778,0.488
780,0.488
782,0.488
784,0.488
786,0.488
788,0.488
790,0.488
792,0.488
794,0.488
796,0.488
798,0.488
800,0.488
802,0.488
804,0.488
806,0.489
808,0.489
810,0.489
812,0.489
814,0.489
816,0.489
818,0.489
820,0.489
822,0.488
824,0.488
826,0.488
828,0.488
830,0.488
832,0.488
834,0.488
836,0.488
838,0.488
840,0.488
842,0.488
844,0.488
846,0.488
848,0.487
850,0.487
852,0.487
854,0.487
856,0.487
858,0.487
860,0.487
862,0.487
864,0.487
866,0.487
868,0.486
870,0.486
872,0.486
874,0.486
876,0.486
878,0.486
880,0.486
882,0.486
884,0.486
886,0.485
888,0.485
890,0.485
892,0.485
894,0.485
896,0.484
898,0.484
900,0.484
902,0.484
904,0.484
906,0.483
908,0.483
910,0.483
912,0.483
914,0.482
916,0.482
918,0.482
920,0.481
922,0.481
924,0.481
926,0.48
928,0.48
930,0.479
932,0.479
934,0.478
936,0.477
938,0.477
940,0.476
942,0.475
944,0.474
946,0.473
948,0.472
950,0.47
952,0.469
954,0.468
956,0.467
958,0.465
960,0.464
962,0.464
964,0.463
966,0.462
968,0.462
970,0.461
972,0.461
974,0.461
976,0.461
978,0.461
980,0.461
982,0.461
984,0.461
986,0.461
988,0.461
990,0.461
992,0.462
994,0.462
996,0.462
998,0.463
1000,0.463
1002,0.463
1004,0.464
1006,0.464
1008,0.465
1010,0.465
1012,0.465
1014,0.466
1016,0.466
1018,0.467
1020,0.467
1022,0.467
1024,0.468
1026,0.468
1028,0.468
1030,0.469
1032,0.469
1034,0.469
1036,0.47
1038,0.47
1040,0.47
1042,0.47
1044,0.47
1046,0.47
1048,0.471
1050,0.471
1052,0.471
1054,0.471
1056,0.471
1058,0.471
1060,0.471
1062,0.471
1064,0.471
1066,0.471
1068,0.471
1070,0.471
1072,0.471
1074,0.471
1076,0.471
1078,0.471
1080,0.471
1082,0.47
1084,0.47
1086,0.47
1088,0.47
1090,0.47
1092,0.469
1094,0.469
1096,0.468
1098,0.468
1100,0.491
1102,0.49
1104,0.49
1106,0.489
1108,0.489
1110,0.488
1112,0.488
1114,0.487
1116,0.486
1118,0.486
1120,0.485
1122,0.484
1124,0.483
1126,0.482
1128,0.48
1130,0.478
1132,0.476
1134,0.474
1136,0.472
1138,0.469
1140,0.466
1142,0.463
1144,0.46
1146,0.457
1148,0.454
1150,0.451
1152,0.449
1154,0.447
1156,0.445
1158,0.444
1160,0.443
1162,0.442
1164,0.441
1166,0.441
1168,0.44
1170,0.44
1172,0.44
1174,0.439
1176,0.439
1178,0.439
1180,0.438
1182,0.438
1184,0.438
1186,0.437
1188,0.437
1190,0.437
1192,0.436
1194,0.436
1196,0.436
1198,0.436
1200,0.436
1202,0.436
1204,0.436
1206,0.437
1208,0.437
1210,0.437
1212,0.437
1214,0.438
1216,0.438
1218,0.438
1220,0.438
1222,0.439
1224,0.439
1226,0.439
1228,0.44
1230,0.44
1232,0.44
1234,0.44
1236,0.441
1238,0.441
1240,0.441
1242,0.441
1244,0.442
1246,0.442
1248,0.442
1250,0.442
1252,0.442
1254,0.442
1256,0.442
1258,0.442
1260,0.442
1262,0.442
1264,0.442
1266,0.442
1268,0.442
1270,0.442
1272,0.442
1274,0.441
1276,0.441
1278,0.441
1280,0.44
1282,0.44
1284,0.439
1286,0.438
1288,0.438
1290,0.437
1292,0.436
1294,0.435
1296,0.434
1298,0.433
1300,0.432
1302,0.431
1304,0.429
1306,0.428
1308,0.426
1310,0.424
1312,0.422
1314,0.42
1316,0.418
1318,0.416
1320,0.414
1322,0.411
1324,0.408
1326,0.406
1328,0.403
1330,0.4
1332,0.397
1334,0.394
1336,0.391
1338,0.388
1340,0.385
1342,0.382
1344,0.379
1346,0.377
1348,0.374
1350,0.371
1352,0.369
1354,0.366
1356,0.364
1358,0.361
1360,0.358
1362,0.355
1364,0.352
1366,0.349
1368,0.345
1370,0.34
1372,0.335
1374,0.329
1376,0.322
1378,0.314
1380,0.305
1382,0.295
1384,0.284
1386,0.272
1388,0.26
1390,0.247
1392,0.234
1394,0.222
1396,0.209
1398,0.198
1400,0.187
1402,0.177
1404,0.169
1406,0.161
1408,0.154
1410,0.148
1412,0.142
1414,0.138
1416,0.134
1418,0.13
1420,0.127
1422,0.125
1424,0.123
1426,0.121
1428,0.119
1430,0.118
1432,0.117
1434,0.116
1436,0.115
1438,0.114
1440,0.113
1442,0.113
1444,0.113
1446,0.113
1448,0.112
1450,0.112
1452,0.112
1454,0.112
1456,0.113
1458,0.113
1460,0.114
1462,0.114
1464,0.115
1466,0.116
1468,0.117
1470,0.119
1472,0.12
1474,0.122
1476,0.123
1478,0.125
1480,0.127
1482,0.129
1484,0.132
1486,0.134
1488,0.136
1490,0.138
1492,0.141
1494,0.143
1496,0.146
1498,0.148
1500,0.151
1502,0.154
1504,0.156
1506,0.159
1508,0.162
1510,0.165
1512,0.168
1514,0.17
1516,0.173
1518,0.176
1520,0.179
1522,0.182
1524,0.185
1526,0.188
1528,0.19
1530,0.193
1532,0.196
1534,0.199
1536,0.201
1538,0.204
1540,0.207
1542,0.209
1544,0.212
1546,0.214
1548,0.217
1550,0.22
1552,0.222
1554,0.225
1556,0.227
1558,0.229
1560,0.232
1562,0.234
1564,0.236
1566,0.238
1568,0.241
1570,0.243
1572,0.245
1574,0.247
1576,0.249
1578,0.251
1580,0.253
1582,0.255
1584,0.257
1586,0.259
1588,0.26
1590,0.262
1592,0.264
1594,0.266
1596,0.267
1598,0.269
1600,0.271
1602,0.272
1604,0.274
1606,0.275
1608,0.277
1610,0.278
1612,0.28
1614,0.281
1616,0.282
1618,0.284
1620,0.285
1622,0.286
1624,0.287
1626,0.289
1628,0.29
1630,0.291
1632,0.292
1634,0.293
1636,0.294
1638,0.295
1640,0.296
1642,0.296
1644,0.297
1646,0.298
1648,0.299
1650,0.299
1652,0.299
1654,0.3
1656,0.3
1658,0.301
1660,0.301
1662,0.301
1664,0.302
1666,0.302
1668,0.303
1670,0.303
1672,0.303
1674,0.304
1676,0.304
1678,0.304
1680,0.304
1682,0.304
1684,0.304
1686,0.304
1688,0.303
1690,0.303
1692,0.303
1694,0.303
1696,0.302
1698,0.302
1700,0.301
1702,0.301
1704,0.3
1706,0.3
1708,0.299
1710,0.299
1712,0.298
1714,0.298
1716,0.297
1718,0.296
1720,0.295
1722,0.294
1724,0.294
1726,0.293
1728,0.292
1730,0.291
1732,0.29
1734,0.289
1736,0.288
1738,0.287
1740,0.285
1742,0.284
1744,0.283
1746,0.282
1748,0.28
1750,0.279
1752,0.278
1754,0.276
1756,0.275
1758,0.273
1760,0.272
1762,0.27
1764,0.269
1766,0.268
1768,0.267
1770,0.266
1772,0.265
1774,0.264
1776,0.263
1778,0.262
1780,0.261
1782,0.261
1784,0.261
1786,0.26
1788,0.26
1790,0.26
1792,0.26
1794,0.26
1796,0.26
1798,0.26
1800,0.26
1802,0.26
1804,0.261
1806,0.261
1808,0.261
1810,0.261
1812,0.261
1814,0.262
1816,0.262
1818,0.262
1820,0.262
1822,0.261
1824,0.261
1826,0.261
1828,0.26
1830,0.26
1832,0.259
1834,0.258
1836,0.257
1838,0.256
1840,0.254
1842,0.252
1844,0.25
1846,0.248
1848,0.245
1850,0.241
1852,0.237
1854,0.233
1856,0.228
1858,0.222
1860,0.215
1862,0.208
1864,0.2
1866,0.192
1868,0.183
1870,0.173
1872,0.162
1874,0.151
1876,0.14
1878,0.129
1880,0.119
1882,0.109
1884,0.1
1886,0.091
1888,0.083
1890,0.076
1892,0.07
1894,0.066
1896,0.062
1898,0.058
1900,0.056
1902,0.054
1904,0.052
1906,0.051
1908,0.05
1910,0.049
1912,0.049
1914,0.048
1916,0.048
1918,0.047
1920,0.047
1922,0.047
1924,0.047
1926,0.047
1928,0.047
1930,0.047
1932,0.047
1934,0.047
1936,0.047
1938,0.047
1940,0.047
1942,0.047
1944,0.047
1946,0.048
1948,0.048
1950,0.048
1952,0.049
1954,0.049
1956,0.049
1958,0.049
1960,0.05
1962,0.05
1964,0.051
1966,0.051
1968,0.052
1970,0.052
1972,0.052
1974,0.053
1976,0.054
1978,0.054
1980,0.055
1982,0.055
1984,0.056
1986,0.056
1988,0.057
1990,0.058
1992,0.059
1994,0.059
1996,0.06
1998,0.061
2000,0.062
2002,0.062
2004,0.063
2006,0.064
2008,0.065
2010,0.066
2012,0.067
2014,0.068
2016,0.068
2018,0.069
2020,0.07
2022,0.071
2024,0.072
2026,0.073
2028,0.074
2030,0.075
2032,0.076
2034,0.077
2036,0.078
2038,0.079
2040,0.08
2042,0.081
2044,0.082
2046,0.082
2048,0.083
2050,0.084
2052,0.085
2054,0.086
2056,0.087
2058,0.088
2060,0.089
2062,0.09
2064,0.091
2066,0.092
2068,0.093
2070,0.094
2072,0.096
2074,0.097
2076,0.098
2078,0.099
2080,0.1
2082,0.101
2084,0.102
2086,0.103
2088,0.104
2090,0.105
2092,0.106
2094,0.107
2096,0.108
2098,0.109
2100,0.11
2102,0.111
2104,0.112
2106,0.113
2108,0.114
2110,0.115
2112,0.116
2114,0.117
2116,0.118
2118,0.119
2120,0.119
2122,0.12
2124,0.121
2126,0.122
2128,0.123
2130,0.123
2132,0.124
2134,0.125
2136,0.125
2138,0.126
2140,0.127
2142,0.127
2144,0.128
2146,0.129
2148,0.129
2150,0.13
2152,0.131
2154,0.131
2156,0.132
2158,0.133
2160,0.133
2162,0.134
2164,0.134
2166,0.135
2168,0.135
2170,0.136
2172,0.137
2174,0.137
2176,0.138
2178,0.138
2180,0.139
2182,0.139
2184,0.14
2186,0.141
2188,0.141
2190,0.142
2192,0.142
2194,0.143
2196,0.143
2198,0.144
2200,0.144
2202,0.145
2204,0.145
2206,0.146
2208,0.146
2210,0.146
2212,0.146
2214,0.147
2216,0.147
2218,0.147
2220,0.147
2222,0.147
2224,0.147
2226,0.147
2228,0.146
2230,0.146
2232,0.146
2234,0.145
2236,0.145
2238,0.144
2240,0.144
2242,0.143
2244,0.142
2246,0.141
2248,0.14
2250,0.139
2252,0.138
2254,0.137
2256,0.136
2258,0.135
2260,0.134
2262,0.133
2264,0.132
2266,0.131
2268,0.13
2270,0.129
2272,0.128
2274,0.127
2276,0.126
2278,0.125
2280,0.124
2282,0.123
2284,0.122
2286,0.121
2288,0.12
2290,0.119
2292,0.118
2294,0.117
2296,0.116
2298,0.115
2300,0.114
2302,0.113
2304,0.112
2306,0.111
2308,0.11
2310,0.109
2312,0.108
2314,0.107
2316,0.107
2318,0.106
2320,0.105
2322,0.104
2324,0.103
2326,0.102
2328,0.102
2330,0.101
2332,0.1
2334,0.099
2336,0.098
2338,0.097
2340,0.096
2342,0.095
2344,0.094
2346,0.093
2348,0.092
2350,0.091
2352,0.09
2354,0.09
2356,0.089
2358,0.088
2360,0.087
2362,0.086
2364,0.086
2366,0.085
2368,0.084
2370,0.083
2372,0.083
2374,0.082
2376,0.081
2378,0.08
2380,0.079
2382,0.079
2384,0.078
2386,0.077
2388,0.077
2390,0.076
2392,0.075
2394,0.074
2396,0.074
2398,0.073
2400,0.072
2402,0.072
2404,0.071
2406,0.07
2408,0.069
2410,0.069
2412,0.068
2414,0.068
2416,0.067
2418,0.066
2420,0.065
2422,0.065
2424,0.064
2426,0.064
2428,0.063
2430,0.062
2432,0.062
2434,0.061
2436,0.061
2438,0.06
2440,0.06
2442,0.059
2444,0.058
2446,0.058
2448,0.058
2450,0.057
2452,0.056
2454,0.056
2456,0.056
2458,0.055
2460,0.055
2462,0.054
2464,0.054
2466,0.054
2468,0.053
2470,0.053
2472,0.052
2474,0.052
2476,0.052
2478,0.052
2480,0.051
2482,0.051
2484,0.051
2486,0.051
2488,0.05
2490,0.05
2492,0.05
2494,0.05
2496,0.05
2498,0.049
