#---
#spectra_types: PA
#resources:
#  fields:
#  - name: wavelengths
#    type: number
#  - name: accp|PSME_SC8_dry|NA.001
#    type: number
#
#---
wavelengths,accp|PSME_SC8_dry|NA.001
400,0.9299
402,0.9431
404,0.9541
406,0.9626
408,0.9687
410,0.9709
412,0.9748
414,0.976
416,0.9772
418,0.9774
420,0.9773
422,0.9774
424,0.9781
426,0.9765
428,0.9774
430,0.978
432,0.979
434,0.9791
436,0.9784
438,0.9783
440,0.9779
442,0.9784
444,0.9778
446,0.9785
448,0.9774
450,0.9771
452,0.9763
454,0.9764
456,0.9761
458,0.976
460,0.9749
462,0.9742
464,0.973
466,0.9712
468,0.9691
470,0.9673
472,0.9639
474,0.9606
476,0.9574
478,0.9528
480,0.9488
482,0.9441
484,0.9397
486,0.9352
488,0.9299
490,0.9252
492,0.9194
494,0.9137
496,0.9077
498,0.9012
500,0.8936
502,0.8847
504,0.8764
506,0.8664
508,0.856
510,0.8446
512,0.8327
514,0.8205
516,0.8099
518,0.7983
520,0.7872
522,0.7791
524,0.7711
526,0.7645
528,0.7592
530,0.7549
532,0.751
534,0.7483
536,0.7478
538,0.7465
540,0.7442
542,0.7426
544,0.7407
546,0.7386
548,0.7372
550,0.7359
552,0.7345
554,0.7338
556,0.7334
558,0.7341
560,0.7356
562,0.7373
564,0.74
566,0.7435
568,0.7474
570,0.7516
572,0.7564
574,0.7606
576,0.7652
578,0.7698
580,0.7739
582,0.7784
584,0.7827
586,0.7868
588,0.7912
590,0.7959
592,0.8003
594,0.805
596,0.8097
598,0.8145
600,0.8198
602,0.8247
604,0.8296
606,0.8343
608,0.8385
610,0.8426
612,0.846
614,0.8487
616,0.8511
618,0.853
620,0.8545
622,0.8559
624,0.8573
626,0.8587
628,0.8606
630,0.8633
632,0.8664
634,0.8704
636,0.8755
638,0.8817
640,0.8885
642,0.8958
644,0.9037
646,0.9113
648,0.9189
650,0.9268
652,0.9345
654,0.9422
656,0.95
658,0.9572
660,0.964
662,0.9701
664,0.9754
666,0.9797
668,0.9825
670,0.9835
672,0.9825
674,0.9786
676,0.9716
678,0.9602
680,0.9446
682,0.9243
684,0.8975
686,0.8669
688,0.8313
690,0.7925
692,0.7527
694,0.7114
696,0.671
698,0.6323
700,0.5946
702,0.5601
704,0.5279
706,0.4972
708,0.4705
710,0.4457
712,0.4225
714,0.4023
716,0.3834
718,0.3662
720,0.3509
722,0.3366
724,0.3236
726,0.3119
728,0.301
730,0.2912
732,0.2824
734,0.2743
736,0.2672
738,0.2608
740,0.2549
742,0.2499
744,0.2453
746,0.2411
748,0.2375
750,0.2343
752,0.2314
754,0.2289
756,0.2266
758,0.2245
760,0.2226
762,0.2208
764,0.2191
766,0.2176
768,0.216
770,0.2145
772,0.2131
774,0.2118
776,0.2106
778,0.2096
780,0.2086
782,0.2078
784,0.207
786,0.2062
788,0.2054
790,0.2046
792,0.2038
794,0.2031
796,0.2023
798,0.2016
800,0.2009
802,0.2002
804,0.1995
806,0.1988
808,0.1981
810,0.1974
812,0.1967
814,0.1959
816,0.1952
818,0.1945
820,0.1937
822,0.193
824,0.1922
826,0.1915
828,0.1907
830,0.1899
832,0.1892
834,0.1885
836,0.1877
838,0.187
840,0.1863
842,0.1856
844,0.1849
846,0.1842
848,0.1835
850,0.1829
852,0.1823
854,0.1817
856,0.1811
858,0.1805
860,0.18
862,0.1795
864,0.179
866,0.1786
868,0.1781
870,0.1777
872,0.1772
874,0.1768
876,0.1764
878,0.176
880,0.1756
882,0.1752
884,0.1748
886,0.1745
888,0.1742
890,0.174
892,0.1737
894,0.1735
896,0.1733
898,0.1731
900,0.173
902,0.1728
904,0.1727
906,0.1725
908,0.1723
910,0.1721
912,0.1719
914,0.1717
916,0.1714
918,0.1711
920,0.1708
922,0.1704
924,0.17
926,0.1696
928,0.1692
930,0.1687
932,0.1682
934,0.1677
936,0.1672
938,0.1667
940,0.1663
942,0.1658
944,0.1654
946,0.165
948,0.1647
950,0.1644
952,0.1642
954,0.164
956,0.1639
958,0.1639
960,0.1641
962,0.1643
964,0.1647
966,0.1652
968,0.1658
970,0.1665
972,0.1673
974,0.1681
976,0.1689
978,0.1697
980,0.1704
982,0.171
984,0.1715
986,0.1719
988,0.1722
990,0.1723
992,0.1723
994,0.1723
996,0.1722
998,0.172
1000,0.1717
1002,0.1715
1004,0.1711
1006,0.1708
1008,0.1705
1010,0.1701
1012,0.1697
1014,0.1694
1016,0.169
1018,0.1686
1020,0.1682
1022,0.1678
1024,0.1674
1026,0.1671
1028,0.1667
1030,0.1663
1032,0.166
1034,0.1657
1036,0.1653
1038,0.165
1040,0.1647
1042,0.1644
1044,0.1641
1046,0.1638
1048,0.1635
1050,0.1633
1052,0.163
1054,0.1628
1056,0.1626
1058,0.1624
1060,0.1622
1062,0.1619
1064,0.1617
1066,0.1615
1068,0.1612
1070,0.161
1072,0.1608
1074,0.1607
1076,0.1606
1078,0.1604
1080,0.1603
1082,0.1601
1084,0.16
1086,0.1599
1088,0.1598
1090,0.1598
1092,0.1597
1094,0.1596
1096,0.1596
1098,0.1596
1100,0.1553
1102,0.1555
1104,0.1558
1106,0.156
1108,0.1564
1110,0.1568
1112,0.1573
1114,0.1578
1116,0.1585
1118,0.1593
1120,0.1601
1122,0.1611
1124,0.1622
1126,0.1633
1128,0.1645
1130,0.1658
1132,0.1671
1134,0.1685
1136,0.1698
1138,0.1711
1140,0.1724
1142,0.1736
1144,0.1749
1146,0.1762
1148,0.1775
1150,0.1789
1152,0.1804
1154,0.182
1156,0.1838
1158,0.1856
1160,0.1876
1162,0.1896
1164,0.1917
1166,0.1937
1168,0.1958
1170,0.1978
1172,0.1998
1174,0.2019
1176,0.2039
1178,0.2062
1180,0.2084
1182,0.2107
1184,0.213
1186,0.2152
1188,0.2173
1190,0.2194
1192,0.2213
1194,0.223
1196,0.2246
1198,0.2259
1200,0.227
1202,0.2277
1204,0.2282
1206,0.2284
1208,0.2283
1210,0.228
1212,0.2274
1214,0.2266
1216,0.2256
1218,0.2244
1220,0.223
1222,0.2215
1224,0.2201
1226,0.2186
1228,0.2172
1230,0.2158
1232,0.2146
1234,0.2134
1236,0.2123
1238,0.2113
1240,0.2104
1242,0.2096
1244,0.2088
1246,0.2081
1248,0.2075
1250,0.207
1252,0.2066
1254,0.2062
1256,0.2059
1258,0.2056
1260,0.2054
1262,0.2053
1264,0.2051
1266,0.2049
1268,0.2048
1270,0.2046
1272,0.2043
1274,0.2041
1276,0.2038
1278,0.2034
1280,0.203
1282,0.2026
1284,0.2022
1286,0.2018
1288,0.2014
1290,0.201
1292,0.2007
1294,0.2004
1296,0.2002
1298,0.2
1300,0.1998
1302,0.1997
1304,0.1997
1306,0.1997
1308,0.1997
1310,0.1998
1312,0.2
1314,0.2002
1316,0.2005
1318,0.2009
1320,0.2014
1322,0.202
1324,0.2027
1326,0.2035
1328,0.2045
1330,0.2056
1332,0.207
1334,0.2085
1336,0.2102
1338,0.2122
1340,0.2144
1342,0.2168
1344,0.2195
1346,0.2223
1348,0.2254
1350,0.2286
1352,0.2318
1354,0.2352
1356,0.2384
1358,0.2416
1360,0.2448
1362,0.2477
1364,0.2505
1366,0.2532
1368,0.2556
1370,0.258
1372,0.2602
1374,0.2622
1376,0.2643
1378,0.2663
1380,0.2683
1382,0.2704
1384,0.2724
1386,0.2746
1388,0.2767
1390,0.2789
1392,0.2813
1394,0.2839
1396,0.287
1398,0.2905
1400,0.2947
1402,0.2998
1404,0.3057
1406,0.3126
1408,0.3206
1410,0.3292
1412,0.3392
1414,0.3495
1416,0.3606
1418,0.3723
1420,0.3837
1422,0.3955
1424,0.4069
1426,0.4177
1428,0.4283
1430,0.4376
1432,0.4463
1434,0.4541
1436,0.4609
1438,0.4668
1440,0.4717
1442,0.4758
1444,0.4791
1446,0.4816
1448,0.4835
1450,0.4848
1452,0.4857
1454,0.4862
1456,0.4864
1458,0.4864
1460,0.4862
1462,0.4859
1464,0.4854
1466,0.4849
1468,0.4842
1470,0.4835
1472,0.4827
1474,0.4819
1476,0.481
1478,0.4801
1480,0.4792
1482,0.4784
1484,0.4775
1486,0.4766
1488,0.4757
1490,0.4748
1492,0.4739
1494,0.4729
1496,0.4719
1498,0.4709
1500,0.4697
1502,0.4686
1504,0.4674
1506,0.4662
1508,0.465
1510,0.4637
1512,0.4625
1514,0.4613
1516,0.46
1518,0.4589
1520,0.4578
1522,0.4568
1524,0.4559
1526,0.455
1528,0.4543
1530,0.4537
1532,0.4532
1534,0.4527
1536,0.4523
1538,0.452
1540,0.4518
1542,0.4515
1544,0.4514
1546,0.4512
1548,0.4511
1550,0.451
1552,0.4509
1554,0.4508
1556,0.4507
1558,0.4507
1560,0.4506
1562,0.4506
1564,0.4505
1566,0.4504
1568,0.4503
1570,0.4501
1572,0.4499
1574,0.4496
1576,0.4493
1578,0.4488
1580,0.4483
1582,0.4477
1584,0.4471
1586,0.4463
1588,0.4455
1590,0.4446
1592,0.4435
1594,0.4424
1596,0.4412
1598,0.44
1600,0.4387
1602,0.4373
1604,0.436
1606,0.4346
1608,0.4332
1610,0.4319
1612,0.4306
1614,0.4293
1616,0.4282
1618,0.4271
1620,0.4262
1622,0.4253
1624,0.4246
1626,0.4241
1628,0.4237
1630,0.4233
1632,0.423
1634,0.4226
1636,0.4221
1638,0.4216
1640,0.4212
1642,0.4208
1644,0.4207
1646,0.4209
1648,0.4214
1650,0.4222
1652,0.4234
1654,0.4248
1656,0.4264
1658,0.4283
1660,0.43
1662,0.4317
1664,0.4334
1666,0.4348
1668,0.4362
1670,0.4373
1672,0.4385
1674,0.4396
1676,0.4406
1678,0.4416
1680,0.4425
1682,0.4435
1684,0.4447
1686,0.4464
1688,0.4487
1690,0.4515
1692,0.4545
1694,0.4573
1696,0.4599
1698,0.4625
1700,0.4652
1702,0.4684
1704,0.4717
1706,0.4751
1708,0.4785
1710,0.4815
1712,0.4841
1714,0.4862
1716,0.4877
1718,0.4888
1720,0.4894
1722,0.4897
1724,0.4897
1726,0.4892
1728,0.4884
1730,0.4872
1732,0.4855
1734,0.4837
1736,0.482
1738,0.4806
1740,0.4797
1742,0.4792
1744,0.4792
1746,0.4795
1748,0.4799
1750,0.4804
1752,0.4808
1754,0.4809
1756,0.4808
1758,0.4804
1760,0.4798
1762,0.479
1764,0.4778
1766,0.4765
1768,0.475
1770,0.4735
1772,0.4721
1774,0.4707
1776,0.4694
1778,0.468
1780,0.4666
1782,0.4651
1784,0.4638
1786,0.4624
1788,0.4612
1790,0.46
1792,0.459
1794,0.4579
1796,0.4569
1798,0.456
1800,0.455
1802,0.4542
1804,0.4534
1806,0.4526
1808,0.4519
1810,0.4512
1812,0.4505
1814,0.4499
1816,0.4492
1818,0.4486
1820,0.4478
1822,0.447
1824,0.4461
1826,0.4451
1828,0.4439
1830,0.4427
1832,0.4416
1834,0.4405
1836,0.4395
1838,0.4385
1840,0.4373
1842,0.4362
1844,0.4349
1846,0.4336
1848,0.4325
1850,0.4317
1852,0.4311
1854,0.4307
1856,0.4303
1858,0.4301
1860,0.4299
1862,0.4298
1864,0.4298
1866,0.4299
1868,0.4301
1870,0.4305
1872,0.4311
1874,0.4319
1876,0.433
1878,0.4344
1880,0.4361
1882,0.4382
1884,0.4408
1886,0.4439
1888,0.4478
1890,0.4523
1892,0.4578
1894,0.4639
1896,0.4709
1898,0.4784
1900,0.4866
1902,0.4952
1904,0.5038
1906,0.5125
1908,0.5206
1910,0.5284
1912,0.5355
1914,0.5418
1916,0.5475
1918,0.5524
1920,0.5565
1922,0.5599
1924,0.5626
1926,0.5646
1928,0.566
1930,0.5668
1932,0.5672
1934,0.5671
1936,0.5666
1938,0.5659
1940,0.5648
1942,0.5636
1944,0.5622
1946,0.5607
1948,0.5591
1950,0.5574
1952,0.5558
1954,0.5541
1956,0.5525
1958,0.5508
1960,0.5493
1962,0.5478
1964,0.5464
1966,0.5451
1968,0.5439
1970,0.5427
1972,0.5416
1974,0.5406
1976,0.5396
1978,0.5388
1980,0.5381
1982,0.5376
1984,0.5372
1986,0.5371
1988,0.5372
1990,0.5375
1992,0.5381
1994,0.539
1996,0.5402
1998,0.5417
2000,0.5435
2002,0.5457
2004,0.5482
2006,0.551
2008,0.5543
2010,0.5579
2012,0.5619
2014,0.5665
2016,0.5714
2018,0.5769
2020,0.5827
2022,0.589
2024,0.5955
2026,0.6022
2028,0.6092
2030,0.6163
2032,0.6235
2034,0.6307
2036,0.638
2038,0.6452
2040,0.6525
2042,0.6596
2044,0.6666
2046,0.6735
2048,0.6801
2050,0.6866
2052,0.6926
2054,0.6985
2056,0.7039
2058,0.7091
2060,0.7141
2062,0.7188
2064,0.7232
2066,0.7274
2068,0.7315
2070,0.7353
2072,0.7391
2074,0.7426
2076,0.7461
2078,0.7493
2080,0.7524
2082,0.7554
2084,0.7583
2086,0.761
2088,0.7636
2090,0.7661
2092,0.7684
2094,0.7706
2096,0.7727
2098,0.7746
2100,0.7763
2102,0.7779
2104,0.7794
2106,0.7807
2108,0.7819
2110,0.7829
2112,0.7839
2114,0.7848
2116,0.7855
2118,0.7862
2120,0.7868
2122,0.7872
2124,0.7875
2126,0.7877
2128,0.7878
2130,0.7876
2132,0.7874
2134,0.787
2136,0.7864
2138,0.7857
2140,0.7847
2142,0.7834
2144,0.7819
2146,0.7802
2148,0.7783
2150,0.7761
2152,0.7738
2154,0.7713
2156,0.7687
2158,0.766
2160,0.7632
2162,0.7603
2164,0.7574
2166,0.7544
2168,0.7516
2170,0.7487
2172,0.7458
2174,0.7429
2176,0.74
2178,0.7371
2180,0.7342
2182,0.7313
2184,0.7284
2186,0.7255
2188,0.7226
2190,0.7197
2192,0.7169
2194,0.7141
2196,0.7114
2198,0.7089
2200,0.7063
2202,0.7038
2204,0.7015
2206,0.6993
2208,0.6972
2210,0.6952
2212,0.6934
2214,0.6918
2216,0.6904
2218,0.6894
2220,0.6886
2222,0.6882
2224,0.6882
2226,0.6887
2228,0.6896
2230,0.6911
2232,0.693
2234,0.6956
2236,0.6988
2238,0.7025
2240,0.7067
2242,0.7114
2244,0.7166
2246,0.7221
2248,0.7281
2250,0.7343
2252,0.7409
2254,0.7475
2256,0.7543
2258,0.761
2260,0.7678
2262,0.7743
2264,0.7806
2266,0.7865
2268,0.792
2270,0.7968
2272,0.8011
2274,0.8047
2276,0.8078
2278,0.8104
2280,0.8126
2282,0.8147
2284,0.8167
2286,0.8188
2288,0.8209
2290,0.8235
2292,0.8264
2294,0.8299
2296,0.8338
2298,0.8381
2300,0.8422
2302,0.8462
2304,0.8497
2306,0.8525
2308,0.8545
2310,0.8553
2312,0.8549
2314,0.8534
2316,0.8513
2318,0.8492
2320,0.8477
2322,0.8469
2324,0.8469
2326,0.8474
2328,0.848
2330,0.8487
2332,0.8495
2334,0.8502
2336,0.8509
2338,0.8517
2340,0.8525
2342,0.8533
2344,0.854
2346,0.8544
2348,0.8541
2350,0.8532
2352,0.8514
2354,0.8488
2356,0.846
2358,0.8433
2360,0.8408
2362,0.8385
2364,0.8366
2366,0.8349
2368,0.8334
2370,0.8322
2372,0.8313
2374,0.8307
2376,0.8304
2378,0.8302
2380,0.8302
2382,0.8301
2384,0.8299
2386,0.8296
2388,0.8292
2390,0.8285
2392,0.8279
2394,0.8272
2396,0.8266
2398,0.8263
2400,0.8264
2402,0.8268
2404,0.8275
2406,0.8285
2408,0.8299
2410,0.8313
2412,0.833
2414,0.8349
2416,0.837
2418,0.8394
2420,0.8419
2422,0.8447
2424,0.8476
2426,0.8508
2428,0.8542
2430,0.8578
2432,0.8617
2434,0.8657
2436,0.87
2438,0.8746
2440,0.8793
2442,0.8841
2444,0.889
2446,0.8939
2448,0.899
2450,0.9042
2452,0.9094
2454,0.9148
2456,0.9202
2458,0.9258
2460,0.9311
2462,0.9361
2464,0.9408
2466,0.9452
2468,0.9492
2470,0.9532
2472,0.9569
2474,0.9604
2476,0.9638
2478,0.967
2480,0.9698
2482,0.9724
2484,0.9746
2486,0.9765
2488,0.9781
2490,0.9794
2492,0.9802
2494,0.9808
2496,0.9813
2498,0.9813
