#---
#spectra_types: PA
#resources:
#  fields:
#  - name: wavelengths
#    type: number
#  - name: accp|PSME_SC9_fresh|NA.001
#    type: number
#
#---
wavelengths,accp|PSME_SC9_fresh|NA.001
400,0.9743
402,0.9904
404,1.0061
406,1.0186
408,1.0298
410,1.0392
412,1.0482
414,1.0556
416,1.0633
418,1.0698
420,1.0753
422,1.0813
424,1.088
426,1.0914
428,1.0966
430,1.1011
432,1.1041
434,1.1075
436,1.1098
438,1.1117
440,1.1137
442,1.1151
444,1.116
446,1.1171
448,1.1174
450,1.1182
452,1.1177
454,1.117
456,1.1171
458,1.1172
460,1.1163
462,1.1153
464,1.1139
466,1.1118
468,1.1091
470,1.107
472,1.1035
474,1.1
476,1.0951
478,1.091
480,1.0865
482,1.0805
484,1.0753
486,1.0701
488,1.0644
490,1.0578
492,1.0524
494,1.0457
496,1.0398
498,1.0337
500,1.0262
502,1.0179
504,1.01
506,0.999
508,0.989
510,0.9777
512,0.9649
514,0.9526
516,0.9402
518,0.9271
520,0.9152
522,0.9051
524,0.8942
526,0.8862
528,0.8784
530,0.8718
532,0.8671
534,0.8627
536,0.86
538,0.8576
540,0.8562
542,0.8549
544,0.8551
546,0.8555
548,0.8565
550,0.8586
552,0.8606
554,0.8637
556,0.8677
558,0.8726
560,0.8787
562,0.8856
564,0.8934
566,0.902
568,0.9115
570,0.9213
572,0.931
574,0.9409
576,0.9513
578,0.9607
580,0.9694
582,0.9781
584,0.9856
586,0.9926
588,0.9993
590,1.0053
592,1.0115
594,1.0175
596,1.0229
598,1.0285
600,1.0349
602,1.0409
604,1.0478
606,1.054
608,1.0606
610,1.0673
612,1.0735
614,1.0791
616,1.0847
618,1.0894
620,1.0932
622,1.0969
624,1.1
626,1.1025
628,1.1051
630,1.1075
632,1.1105
634,1.1142
636,1.1189
638,1.1252
640,1.1324
642,1.1401
644,1.1484
646,1.1564
648,1.1643
650,1.1724
652,1.1804
654,1.1885
656,1.1967
658,1.2042
660,1.2112
662,1.2174
664,1.2227
666,1.2274
668,1.2309
670,1.2331
672,1.2339
674,1.2327
676,1.2291
678,1.2222
680,1.2114
682,1.1954
684,1.1723
686,1.1438
688,1.1083
690,1.0676
692,1.0245
694,0.9783
696,0.9322
698,0.8868
700,0.8413
702,0.7985
704,0.7571
706,0.7163
708,0.6792
710,0.643
712,0.6077
714,0.5754
716,0.5441
718,0.5141
720,0.4863
722,0.4596
724,0.4345
726,0.4114
728,0.3895
730,0.3694
732,0.3512
734,0.3339
736,0.3188
738,0.3051
740,0.2923
742,0.2815
744,0.2716
746,0.2627
748,0.2553
750,0.2486
752,0.2428
754,0.2379
756,0.2336
758,0.2299
760,0.2268
762,0.224
764,0.2217
766,0.2195
768,0.2175
770,0.2157
772,0.214
774,0.2124
776,0.2112
778,0.2101
780,0.2092
782,0.2085
784,0.2079
786,0.2073
788,0.2067
790,0.2061
792,0.2056
794,0.205
796,0.2045
798,0.204
800,0.2036
802,0.2031
804,0.2027
806,0.2022
808,0.2018
810,0.2014
812,0.201
814,0.2006
816,0.2003
818,0.1999
820,0.1996
822,0.1993
824,0.199
826,0.1987
828,0.1985
830,0.1983
832,0.1981
834,0.1978
836,0.1976
838,0.1973
840,0.1971
842,0.1968
844,0.1965
846,0.1962
848,0.1959
850,0.1957
852,0.1954
854,0.1951
856,0.1948
858,0.1945
860,0.1943
862,0.194
864,0.1938
866,0.1935
868,0.1933
870,0.1931
872,0.1929
874,0.1927
876,0.1925
878,0.1924
880,0.1921
882,0.192
884,0.1918
886,0.1917
888,0.1917
890,0.1916
892,0.1915
894,0.1915
896,0.1915
898,0.1914
900,0.1914
902,0.1914
904,0.1914
906,0.1915
908,0.1915
910,0.1915
912,0.1915
914,0.1916
916,0.1917
918,0.1919
920,0.1921
922,0.1923
924,0.1927
926,0.1931
928,0.1936
930,0.1942
932,0.1949
934,0.1956
936,0.1966
938,0.1975
940,0.1987
942,0.2
944,0.2014
946,0.2032
948,0.2051
950,0.2071
952,0.2094
954,0.2117
956,0.214
958,0.2161
960,0.218
962,0.2197
964,0.221
966,0.2221
968,0.223
970,0.2236
972,0.2241
974,0.2244
976,0.2246
978,0.2246
980,0.2246
982,0.2243
984,0.224
986,0.2235
988,0.223
990,0.2223
992,0.2216
994,0.2207
996,0.2198
998,0.2189
1000,0.2179
1002,0.2169
1004,0.2158
1006,0.2148
1008,0.2136
1010,0.2125
1012,0.2114
1014,0.2103
1016,0.2092
1018,0.208
1020,0.2069
1022,0.2057
1024,0.2046
1026,0.2036
1028,0.2025
1030,0.2014
1032,0.2005
1034,0.1995
1036,0.1986
1038,0.1977
1040,0.1968
1042,0.196
1044,0.1953
1046,0.1945
1048,0.1939
1050,0.1932
1052,0.1927
1054,0.1922
1056,0.1918
1058,0.1914
1060,0.191
1062,0.1907
1064,0.1904
1066,0.1902
1068,0.1901
1070,0.19
1072,0.19
1074,0.19
1076,0.1901
1078,0.1903
1080,0.1905
1082,0.1907
1084,0.191
1086,0.1914
1088,0.1918
1090,0.1923
1092,0.1929
1094,0.1935
1096,0.1941
1098,0.1948
1100,0.1911
1102,0.192
1104,0.1928
1106,0.1938
1108,0.1948
1110,0.1959
1112,0.197
1114,0.1983
1116,0.1997
1118,0.2012
1120,0.2029
1122,0.2049
1124,0.2072
1126,0.2099
1128,0.213
1130,0.2168
1132,0.221
1134,0.2258
1136,0.2312
1138,0.2369
1140,0.2432
1142,0.2495
1144,0.2558
1146,0.2622
1148,0.268
1150,0.2735
1152,0.2785
1154,0.2828
1156,0.2867
1158,0.29
1160,0.2928
1162,0.2953
1164,0.2974
1166,0.2992
1168,0.3008
1170,0.3022
1172,0.3035
1174,0.3047
1176,0.3059
1178,0.3072
1180,0.3084
1182,0.3098
1184,0.3111
1186,0.3125
1188,0.3138
1190,0.315
1192,0.3161
1194,0.317
1196,0.3178
1198,0.3183
1200,0.3187
1202,0.3188
1204,0.3188
1206,0.3185
1208,0.3181
1210,0.3175
1212,0.3168
1214,0.3159
1216,0.315
1218,0.314
1220,0.313
1222,0.3119
1224,0.3108
1226,0.3097
1228,0.3087
1230,0.3078
1232,0.3069
1234,0.3061
1236,0.3053
1238,0.3045
1240,0.3039
1242,0.3032
1244,0.3026
1246,0.302
1248,0.3015
1250,0.301
1252,0.3006
1254,0.3003
1256,0.3
1258,0.2998
1260,0.2997
1262,0.2996
1264,0.2996
1266,0.2997
1268,0.2998
1270,0.3001
1272,0.3004
1274,0.3008
1276,0.3013
1278,0.302
1280,0.3027
1282,0.3035
1284,0.3044
1286,0.3055
1288,0.3067
1290,0.308
1292,0.3095
1294,0.3111
1296,0.313
1298,0.3149
1300,0.317
1302,0.3194
1304,0.3219
1306,0.3246
1308,0.3276
1310,0.3307
1312,0.3341
1314,0.3377
1316,0.3415
1318,0.3456
1320,0.3498
1322,0.3543
1324,0.359
1326,0.3638
1328,0.3689
1330,0.3739
1332,0.3791
1334,0.3845
1336,0.3896
1338,0.3949
1340,0.4001
1342,0.4051
1344,0.4102
1346,0.4149
1348,0.4195
1350,0.4241
1352,0.4284
1354,0.4328
1356,0.4371
1358,0.4415
1360,0.4461
1362,0.4508
1364,0.4559
1366,0.4615
1368,0.4676
1370,0.4747
1372,0.4824
1374,0.4914
1376,0.5018
1378,0.5134
1380,0.527
1382,0.5423
1384,0.5591
1386,0.5781
1388,0.5977
1390,0.6188
1392,0.6412
1394,0.6636
1396,0.6871
1398,0.71
1400,0.7324
1402,0.7548
1404,0.775
1406,0.7948
1408,0.8132
1410,0.8299
1412,0.8456
1414,0.8594
1416,0.8721
1418,0.8837
1420,0.8938
1422,0.9031
1424,0.9114
1426,0.9187
1428,0.9255
1430,0.9311
1432,0.9363
1434,0.9408
1436,0.9446
1438,0.948
1440,0.9507
1442,0.953
1444,0.9549
1446,0.9564
1448,0.9576
1450,0.9584
1452,0.959
1454,0.9593
1456,0.9593
1458,0.9589
1460,0.958
1462,0.9568
1464,0.955
1466,0.9526
1468,0.9498
1470,0.9464
1472,0.9426
1474,0.9383
1476,0.9337
1478,0.9289
1480,0.9237
1482,0.9185
1484,0.9131
1486,0.9075
1488,0.9021
1490,0.8963
1492,0.8907
1494,0.8849
1496,0.879
1498,0.8732
1500,0.8672
1502,0.8612
1504,0.8552
1506,0.849
1508,0.8431
1510,0.837
1512,0.831
1514,0.8251
1516,0.8191
1518,0.8134
1520,0.8078
1522,0.8021
1524,0.7968
1526,0.7913
1528,0.7862
1530,0.7811
1532,0.776
1534,0.7712
1536,0.7662
1538,0.7616
1540,0.757
1542,0.7523
1544,0.748
1546,0.7435
1548,0.7392
1550,0.7351
1552,0.7309
1554,0.727
1556,0.7231
1558,0.7193
1560,0.7156
1562,0.7119
1564,0.7085
1566,0.7051
1568,0.7017
1570,0.6984
1572,0.6951
1574,0.692
1576,0.6889
1578,0.6857
1580,0.6828
1582,0.6797
1584,0.6769
1586,0.674
1588,0.6711
1590,0.6684
1592,0.6656
1594,0.663
1596,0.6603
1598,0.6576
1600,0.6551
1602,0.6526
1604,0.6502
1606,0.6478
1608,0.6454
1610,0.6431
1612,0.6409
1614,0.6388
1616,0.6367
1618,0.6347
1620,0.6328
1622,0.631
1624,0.6293
1626,0.6278
1628,0.6262
1630,0.6248
1632,0.6234
1634,0.622
1636,0.6206
1638,0.6192
1640,0.6179
1642,0.6166
1644,0.6155
1646,0.6145
1648,0.6137
1650,0.6132
1652,0.6128
1654,0.6125
1656,0.6124
1658,0.6124
1660,0.6125
1662,0.6125
1664,0.6126
1666,0.6127
1668,0.6128
1670,0.6128
1672,0.6129
1674,0.613
1676,0.613
1678,0.613
1680,0.613
1682,0.613
1684,0.6133
1686,0.614
1688,0.6154
1690,0.617
1692,0.6189
1694,0.6205
1696,0.622
1698,0.6236
1700,0.6254
1702,0.6278
1704,0.6304
1706,0.6333
1708,0.6362
1710,0.6388
1712,0.6413
1714,0.6433
1716,0.6451
1718,0.6466
1720,0.6478
1722,0.6489
1724,0.6499
1726,0.6507
1728,0.6514
1730,0.6521
1732,0.6526
1734,0.6532
1736,0.6539
1738,0.6549
1740,0.6562
1742,0.658
1744,0.66
1746,0.6625
1748,0.6652
1750,0.668
1752,0.671
1754,0.6738
1756,0.6766
1758,0.6792
1760,0.6815
1762,0.6838
1764,0.6857
1766,0.6875
1768,0.689
1770,0.6903
1772,0.6915
1774,0.6925
1776,0.6934
1778,0.6941
1780,0.6947
1782,0.6951
1784,0.6955
1786,0.6958
1788,0.696
1790,0.6961
1792,0.6961
1794,0.696
1796,0.6957
1798,0.6954
1800,0.6949
1802,0.6945
1804,0.694
1806,0.6935
1808,0.693
1810,0.6926
1812,0.6922
1814,0.6918
1816,0.6915
1818,0.6913
1820,0.6911
1822,0.691
1824,0.6909
1826,0.6908
1828,0.6909
1830,0.6912
1832,0.6917
1834,0.6927
1836,0.6941
1838,0.6959
1840,0.6981
1842,0.7005
1844,0.7034
1846,0.7068
1848,0.7111
1850,0.7163
1852,0.7226
1854,0.73
1856,0.7384
1858,0.7483
1860,0.7593
1862,0.7716
1864,0.7857
1866,0.8011
1868,0.8193
1870,0.8394
1872,0.8623
1874,0.8872
1876,0.9141
1878,0.9433
1880,0.9734
1882,1.0064
1884,1.0403
1886,1.0759
1888,1.1126
1890,1.1488
1892,1.1854
1894,1.2191
1896,1.2518
1898,1.2816
1900,1.3089
1902,1.3336
1904,1.3552
1906,1.3744
1908,1.3903
1910,1.4043
1912,1.4162
1914,1.4262
1916,1.4349
1918,1.442
1920,1.4481
1922,1.4529
1924,1.4567
1926,1.4593
1928,1.4611
1930,1.462
1932,1.4622
1934,1.4614
1936,1.46
1938,1.4579
1940,1.4553
1942,1.4522
1944,1.4486
1946,1.4447
1948,1.4401
1950,1.4355
1952,1.4305
1954,1.425
1956,1.4196
1958,1.4138
1960,1.408
1962,1.4017
1964,1.3957
1966,1.3894
1968,1.3831
1970,1.3766
1972,1.3701
1974,1.3636
1976,1.3567
1978,1.35
1980,1.3431
1982,1.3362
1984,1.3293
1986,1.3223
1988,1.3155
1990,1.3086
1992,1.3018
1994,1.295
1996,1.2884
1998,1.2817
2000,1.2751
2002,1.2687
2004,1.2621
2006,1.2559
2008,1.2496
2010,1.2434
2012,1.2374
2014,1.2314
2016,1.2257
2018,1.2201
2020,1.2147
2022,1.2094
2024,1.2044
2026,1.1993
2028,1.1945
2030,1.1897
2032,1.1851
2034,1.1807
2036,1.1763
2038,1.1722
2040,1.1682
2042,1.1644
2044,1.1606
2046,1.1569
2048,1.1533
2050,1.1497
2052,1.1462
2054,1.1426
2056,1.1391
2058,1.1354
2060,1.1319
2062,1.1282
2064,1.1246
2066,1.1211
2068,1.1175
2070,1.114
2072,1.1105
2074,1.1071
2076,1.1037
2078,1.1003
2080,1.097
2082,1.0936
2084,1.0904
2086,1.0871
2088,1.0839
2090,1.0807
2092,1.0776
2094,1.0745
2096,1.0715
2098,1.0684
2100,1.0655
2102,1.0625
2104,1.0596
2106,1.0568
2108,1.0539
2110,1.0512
2112,1.0485
2114,1.0458
2116,1.0433
2118,1.0407
2120,1.0382
2122,1.0358
2124,1.0333
2126,1.0309
2128,1.0286
2130,1.0262
2132,1.0239
2134,1.0216
2136,1.0194
2138,1.0172
2140,1.0149
2142,1.0127
2144,1.0104
2146,1.008
2148,1.0056
2150,1.0032
2152,1.0009
2154,0.9986
2156,0.9963
2158,0.994
2160,0.9917
2162,0.9894
2164,0.9873
2166,0.9851
2168,0.9831
2170,0.9809
2172,0.9788
2174,0.9766
2176,0.9745
2178,0.9723
2180,0.9701
2182,0.968
2184,0.9659
2186,0.9637
2188,0.9617
2190,0.9597
2192,0.9578
2194,0.956
2196,0.9543
2198,0.9527
2200,0.9511
2202,0.9497
2204,0.9483
2206,0.9471
2208,0.946
2210,0.945
2212,0.9442
2214,0.9436
2216,0.9431
2218,0.9428
2220,0.9427
2222,0.9429
2224,0.9433
2226,0.944
2228,0.9449
2230,0.9462
2232,0.9477
2234,0.9495
2236,0.9515
2238,0.9539
2240,0.9565
2242,0.9592
2244,0.9622
2246,0.9654
2248,0.969
2250,0.9727
2252,0.9768
2254,0.981
2256,0.9855
2258,0.9899
2260,0.9944
2262,0.9988
2264,1.0032
2266,1.0074
2268,1.0114
2270,1.0152
2272,1.0187
2274,1.0218
2276,1.0245
2278,1.0271
2280,1.0295
2282,1.0319
2284,1.0342
2286,1.0368
2288,1.0396
2290,1.0429
2292,1.0465
2294,1.0507
2296,1.0553
2298,1.0602
2300,1.0654
2302,1.0707
2304,1.0757
2306,1.0805
2308,1.0847
2310,1.0884
2312,1.0913
2314,1.0936
2316,1.0954
2318,1.0971
2320,1.0992
2322,1.1019
2324,1.1049
2326,1.1084
2328,1.1118
2330,1.1154
2332,1.1189
2334,1.1225
2336,1.126
2338,1.1295
2340,1.1333
2342,1.1369
2344,1.1406
2346,1.1442
2348,1.1474
2350,1.1504
2352,1.1528
2354,1.1549
2356,1.1568
2358,1.1587
2360,1.1606
2362,1.1627
2364,1.1649
2366,1.1675
2368,1.1704
2370,1.1736
2372,1.1771
2374,1.181
2376,1.1853
2378,1.1896
2380,1.1939
2382,1.1982
2384,1.2024
2386,1.2062
2388,1.2101
2390,1.2134
2392,1.2169
2394,1.2202
2396,1.2237
2398,1.2274
2400,1.2314
2402,1.2354
2404,1.2399
2406,1.2443
2408,1.2491
2410,1.2539
2412,1.2587
2414,1.2635
2416,1.2681
2418,1.2729
2420,1.2777
2422,1.2824
2424,1.2872
2426,1.292
2428,1.2967
2430,1.3014
2432,1.3061
2434,1.3109
2436,1.3158
2438,1.3204
2440,1.3252
2442,1.33
2444,1.3348
2446,1.3396
2448,1.3443
2450,1.3489
2452,1.3536
2454,1.3585
2456,1.3631
2458,1.368
2460,1.3726
2462,1.3777
2464,1.3821
2466,1.3868
2468,1.3914
2470,1.3955
2472,1.3996
2474,1.4038
2476,1.4078
2478,1.4119
2480,1.4156
2482,1.4194
2484,1.4226
2486,1.4257
2488,1.4286
2490,1.4315
2492,1.4339
2494,1.4362
2496,1.4384
2498,1.4405
