#---
#spectra_types: PA
#resources:
#  fields:
#  - name: wavelengths
#    type: number
#  - name: accp|PSME_SC20_fresh|NA.001
#    type: number
#
#---
wavelengths,accp|PSME_SC20_fresh|NA.001
400,0.9723
402,0.9897
404,1.0048
406,1.0167
408,1.0275
410,1.0371
412,1.0457
414,1.054
416,1.0603
418,1.066
420,1.0711
422,1.0769
424,1.082
426,1.0867
428,1.0913
430,1.0953
432,1.0981
434,1.1012
436,1.1038
438,1.1048
440,1.1071
442,1.1082
444,1.1093
446,1.1103
448,1.1107
450,1.1107
452,1.1113
454,1.1117
456,1.1114
458,1.1113
460,1.1103
462,1.1098
464,1.1084
466,1.1064
468,1.1044
470,1.1019
472,1.0984
474,1.0952
476,1.091
478,1.086
480,1.0815
482,1.0765
484,1.0715
486,1.0665
488,1.0612
490,1.055
492,1.0503
494,1.0451
496,1.0397
498,1.0349
500,1.0292
502,1.0233
504,1.0164
506,1.0096
508,1.0022
510,0.9938
512,0.9843
514,0.9754
516,0.9661
518,0.9569
520,0.9492
522,0.942
524,0.9363
526,0.9307
528,0.9264
530,0.9228
532,0.9201
534,0.9181
536,0.9172
538,0.9167
540,0.9164
542,0.9174
544,0.9183
546,0.9195
548,0.9214
550,0.9236
552,0.9264
554,0.9302
556,0.9342
558,0.9396
560,0.9452
562,0.9522
564,0.9599
566,0.968
568,0.9769
570,0.9866
572,0.9961
574,1.0054
576,1.0149
578,1.0239
580,1.0321
582,1.0402
584,1.0476
586,1.0545
588,1.0612
590,1.0667
592,1.0721
594,1.0779
596,1.0837
598,1.0896
600,1.0955
602,1.1006
604,1.1062
606,1.1124
608,1.118
610,1.1239
612,1.129
614,1.1338
616,1.1387
618,1.1427
620,1.146
622,1.1488
624,1.1512
626,1.1527
628,1.1542
630,1.1556
632,1.1567
634,1.1587
636,1.1616
638,1.1658
640,1.1712
642,1.1769
644,1.1831
646,1.1889
648,1.1944
650,1.2003
652,1.206
654,1.2118
656,1.2173
658,1.2226
660,1.2268
662,1.2307
664,1.2338
666,1.2362
668,1.2378
670,1.2389
672,1.2389
674,1.238
676,1.2358
678,1.2317
680,1.2252
682,1.2149
684,1.199
686,1.1783
688,1.1509
690,1.1176
692,1.0807
694,1.0396
696,0.9972
698,0.9541
700,0.9097
702,0.867
704,0.8248
706,0.7823
708,0.7429
710,0.7041
712,0.6658
714,0.6304
716,0.5957
718,0.5621
720,0.5308
722,0.5006
724,0.4719
726,0.4453
728,0.42
730,0.3967
732,0.3753
734,0.355
736,0.3371
738,0.3208
740,0.3055
742,0.2925
744,0.2806
746,0.2699
748,0.2608
750,0.2527
752,0.2456
754,0.2396
756,0.2345
758,0.23
760,0.2263
762,0.2229
764,0.22
766,0.2175
768,0.215
770,0.2128
772,0.2107
774,0.2089
776,0.2075
778,0.2063
780,0.2054
782,0.2046
784,0.204
786,0.2033
788,0.2027
790,0.2021
792,0.2014
794,0.2009
796,0.2003
798,0.1997
800,0.1992
802,0.1987
804,0.1982
806,0.1977
808,0.1973
810,0.1968
812,0.1963
814,0.1959
816,0.1955
818,0.1951
820,0.1947
822,0.1943
824,0.194
826,0.1936
828,0.1933
830,0.193
832,0.1927
834,0.1924
836,0.1921
838,0.1918
840,0.1914
842,0.1911
844,0.1908
846,0.1904
848,0.1901
850,0.1897
852,0.1894
854,0.1891
856,0.1888
858,0.1885
860,0.1882
862,0.1879
864,0.1876
866,0.1873
868,0.1871
870,0.1868
872,0.1866
874,0.1863
876,0.1861
878,0.1859
880,0.1856
882,0.1854
884,0.1853
886,0.1851
888,0.185
890,0.1849
892,0.1848
894,0.1847
896,0.1846
898,0.1845
900,0.1844
902,0.1844
904,0.1843
906,0.1843
908,0.1842
910,0.1842
912,0.1841
914,0.1841
916,0.1841
918,0.1842
920,0.1843
922,0.1844
924,0.1846
926,0.1848
928,0.1851
930,0.1855
932,0.186
934,0.1865
936,0.1872
938,0.1879
940,0.1888
942,0.1898
944,0.1909
946,0.1922
948,0.1937
950,0.1954
952,0.1972
954,0.199
956,0.2009
958,0.2027
960,0.2042
962,0.2056
964,0.2068
966,0.2077
968,0.2084
970,0.209
972,0.2095
974,0.2098
976,0.21
978,0.2101
980,0.2101
982,0.2099
984,0.2097
986,0.2094
988,0.2089
990,0.2084
992,0.2078
994,0.2071
996,0.2064
998,0.2056
1000,0.2048
1002,0.2039
1004,0.203
1006,0.2021
1008,0.2012
1010,0.2003
1012,0.1993
1014,0.1984
1016,0.1975
1018,0.1965
1020,0.1955
1022,0.1946
1024,0.1936
1026,0.1927
1028,0.1919
1030,0.191
1032,0.1901
1034,0.1893
1036,0.1885
1038,0.1878
1040,0.1871
1042,0.1864
1044,0.1857
1046,0.1851
1048,0.1846
1050,0.1841
1052,0.1836
1054,0.1832
1056,0.1829
1058,0.1826
1060,0.1823
1062,0.182
1064,0.1818
1066,0.1816
1068,0.1815
1070,0.1815
1072,0.1815
1074,0.1816
1076,0.1816
1078,0.1818
1080,0.182
1082,0.1822
1084,0.1825
1086,0.1828
1088,0.1832
1090,0.1836
1092,0.1841
1094,0.1847
1096,0.1853
1098,0.1859
1100,0.1843
1102,0.1851
1104,0.1859
1106,0.1867
1108,0.1876
1110,0.1886
1112,0.1896
1114,0.1907
1116,0.1919
1118,0.1932
1120,0.1947
1122,0.1964
1124,0.1985
1126,0.2008
1128,0.2035
1130,0.2067
1132,0.2103
1134,0.2144
1136,0.219
1138,0.2239
1140,0.2293
1142,0.2347
1144,0.2402
1146,0.2457
1148,0.2508
1150,0.2557
1152,0.2602
1154,0.2642
1156,0.2678
1158,0.2709
1160,0.2737
1162,0.2762
1164,0.2783
1166,0.2801
1168,0.2818
1170,0.2833
1172,0.2847
1174,0.286
1176,0.2873
1178,0.2886
1180,0.2899
1182,0.2912
1184,0.2926
1186,0.2939
1188,0.2951
1190,0.2963
1192,0.2973
1194,0.2982
1196,0.2989
1198,0.2994
1200,0.2997
1202,0.2998
1204,0.2998
1206,0.2995
1208,0.2991
1210,0.2986
1212,0.298
1214,0.2972
1216,0.2964
1218,0.2955
1220,0.2945
1222,0.2935
1224,0.2926
1226,0.2916
1228,0.2907
1230,0.2899
1232,0.2891
1234,0.2883
1236,0.2876
1238,0.287
1240,0.2864
1242,0.2858
1244,0.2852
1246,0.2847
1248,0.2842
1250,0.2838
1252,0.2834
1254,0.2831
1256,0.2829
1258,0.2827
1260,0.2825
1262,0.2824
1264,0.2824
1266,0.2825
1268,0.2826
1270,0.2829
1272,0.2831
1274,0.2835
1276,0.2839
1278,0.2844
1280,0.285
1282,0.2857
1284,0.2865
1286,0.2874
1288,0.2884
1290,0.2896
1292,0.2908
1294,0.2922
1296,0.2938
1298,0.2955
1300,0.2974
1302,0.2995
1304,0.3017
1306,0.3041
1308,0.3067
1310,0.3095
1312,0.3125
1314,0.3157
1316,0.3191
1318,0.3228
1320,0.3265
1322,0.3306
1324,0.3348
1326,0.3391
1328,0.3438
1330,0.3483
1332,0.3531
1334,0.3579
1336,0.3627
1338,0.3675
1340,0.3723
1342,0.3769
1344,0.3816
1346,0.3859
1348,0.3903
1350,0.3945
1352,0.3985
1354,0.4026
1356,0.4065
1358,0.4105
1360,0.4147
1362,0.4189
1364,0.4236
1366,0.4286
1368,0.4341
1370,0.4406
1372,0.4477
1374,0.4559
1376,0.4655
1378,0.4761
1380,0.4886
1382,0.5027
1384,0.5183
1386,0.5359
1388,0.5543
1390,0.5743
1392,0.5957
1394,0.617
1396,0.6395
1398,0.6615
1400,0.6833
1402,0.7052
1404,0.7251
1406,0.7448
1408,0.7632
1410,0.78
1412,0.7961
1414,0.8103
1416,0.8235
1418,0.8357
1420,0.8464
1422,0.8564
1424,0.8653
1426,0.8733
1428,0.8807
1430,0.887
1432,0.8928
1434,0.8979
1436,0.9023
1438,0.9062
1440,0.9095
1442,0.9122
1444,0.9146
1446,0.9165
1448,0.918
1450,0.9192
1452,0.9201
1454,0.9207
1456,0.9209
1458,0.9208
1460,0.9202
1462,0.9192
1464,0.9176
1466,0.9155
1468,0.9129
1470,0.9097
1472,0.9062
1474,0.9021
1476,0.8978
1478,0.8932
1480,0.8882
1482,0.8832
1484,0.8781
1486,0.8727
1488,0.8675
1490,0.8619
1492,0.8565
1494,0.8509
1496,0.8451
1498,0.8395
1500,0.8336
1502,0.8277
1504,0.8218
1506,0.8157
1508,0.8099
1510,0.8039
1512,0.7979
1514,0.7922
1516,0.7862
1518,0.7807
1520,0.7751
1522,0.7697
1524,0.7645
1526,0.7592
1528,0.7542
1530,0.7492
1532,0.7442
1534,0.7396
1536,0.7348
1538,0.7302
1540,0.7258
1542,0.7213
1544,0.7171
1546,0.7128
1548,0.7086
1550,0.7046
1552,0.7005
1554,0.6968
1556,0.693
1558,0.6893
1560,0.6858
1562,0.6822
1564,0.6789
1566,0.6756
1568,0.6723
1570,0.6691
1572,0.6659
1574,0.6629
1576,0.6599
1578,0.6568
1580,0.6539
1582,0.651
1584,0.6482
1586,0.6454
1588,0.6425
1590,0.6399
1592,0.6371
1594,0.6345
1596,0.6319
1598,0.6293
1600,0.6268
1602,0.6243
1604,0.6219
1606,0.6196
1608,0.6172
1610,0.615
1612,0.6128
1614,0.6107
1616,0.6087
1618,0.6067
1620,0.6049
1622,0.6031
1624,0.6014
1626,0.5998
1628,0.5982
1630,0.5968
1632,0.5953
1634,0.5939
1636,0.5925
1638,0.5911
1640,0.5898
1642,0.5886
1644,0.5876
1646,0.5867
1648,0.586
1650,0.5855
1652,0.5852
1654,0.5851
1656,0.5851
1658,0.5852
1660,0.5853
1662,0.5855
1664,0.5857
1666,0.5858
1668,0.5859
1670,0.586
1672,0.5861
1674,0.5863
1676,0.5864
1678,0.5864
1680,0.5865
1682,0.5866
1684,0.5869
1686,0.5876
1688,0.5889
1690,0.5905
1692,0.5922
1694,0.5937
1696,0.5951
1698,0.5965
1700,0.5982
1702,0.6003
1704,0.6027
1706,0.6053
1708,0.608
1710,0.6104
1712,0.6127
1714,0.6146
1716,0.6163
1718,0.6177
1720,0.6189
1722,0.62
1724,0.6209
1726,0.6217
1728,0.6224
1730,0.623
1732,0.6235
1734,0.624
1736,0.6246
1738,0.6255
1740,0.6266
1742,0.6282
1744,0.6299
1746,0.632
1748,0.6344
1750,0.6368
1752,0.6394
1754,0.6418
1756,0.6442
1758,0.6465
1760,0.6486
1762,0.6506
1764,0.6522
1766,0.6537
1768,0.655
1770,0.6561
1772,0.6572
1774,0.658
1776,0.6587
1778,0.6593
1780,0.6597
1782,0.66
1784,0.6602
1786,0.6604
1788,0.6605
1790,0.6605
1792,0.6603
1794,0.6601
1796,0.6597
1798,0.6593
1800,0.6587
1802,0.6581
1804,0.6575
1806,0.6569
1808,0.6563
1810,0.6558
1812,0.6553
1814,0.6548
1816,0.6544
1818,0.654
1820,0.6537
1822,0.6535
1824,0.6533
1826,0.6531
1828,0.653
1830,0.6531
1832,0.6535
1834,0.6543
1836,0.6554
1838,0.6569
1840,0.6587
1842,0.6608
1844,0.6634
1846,0.6665
1848,0.6703
1850,0.6751
1852,0.6809
1854,0.6878
1856,0.6956
1858,0.7049
1860,0.7152
1862,0.727
1864,0.7405
1866,0.7554
1868,0.7729
1870,0.7921
1872,0.8139
1874,0.8379
1876,0.864
1878,0.8928
1880,0.9229
1882,0.9563
1884,0.9907
1886,1.027
1888,1.0648
1890,1.1025
1892,1.1408
1894,1.1767
1896,1.2117
1898,1.2439
1900,1.2734
1902,1.3005
1904,1.324
1906,1.3452
1908,1.363
1910,1.3788
1912,1.3925
1914,1.4039
1916,1.414
1918,1.4223
1920,1.4296
1922,1.4353
1924,1.4399
1926,1.4434
1928,1.4459
1930,1.4473
1932,1.4479
1934,1.4476
1936,1.4466
1938,1.4447
1940,1.4423
1942,1.4392
1944,1.4357
1946,1.4317
1948,1.4271
1950,1.4223
1952,1.4171
1954,1.4116
1956,1.4058
1958,1.3998
1960,1.3937
1962,1.3872
1964,1.3809
1966,1.3742
1968,1.3675
1970,1.3608
1972,1.3538
1974,1.3469
1976,1.3396
1978,1.3325
1980,1.3253
1982,1.318
1984,1.3106
1986,1.3032
1988,1.296
1990,1.2886
1992,1.2815
1994,1.2743
1996,1.2671
1998,1.2602
2000,1.2532
2002,1.2464
2004,1.2395
2006,1.2329
2008,1.2262
2010,1.2198
2012,1.2135
2014,1.2073
2016,1.2013
2018,1.1954
2020,1.1898
2022,1.1843
2024,1.1791
2026,1.1739
2028,1.1689
2030,1.1641
2032,1.1594
2034,1.155
2036,1.1506
2038,1.1466
2040,1.1426
2042,1.1388
2044,1.1352
2046,1.1316
2048,1.128
2050,1.1245
2052,1.121
2054,1.1174
2056,1.1138
2058,1.11
2060,1.1063
2062,1.1026
2064,1.0987
2066,1.095
2068,1.0912
2070,1.0875
2072,1.0838
2074,1.0802
2076,1.0766
2078,1.0731
2080,1.0696
2082,1.0662
2084,1.0629
2086,1.0596
2088,1.0563
2090,1.0531
2092,1.05
2094,1.047
2096,1.044
2098,1.041
2100,1.0382
2102,1.0353
2104,1.0324
2106,1.0297
2108,1.0269
2110,1.0244
2112,1.0218
2114,1.0193
2116,1.0168
2118,1.0145
2120,1.0122
2122,1.01
2124,1.0078
2126,1.0056
2128,1.0035
2130,1.0014
2132,0.9994
2134,0.9974
2136,0.9954
2138,0.9935
2140,0.9915
2142,0.9895
2144,0.9874
2146,0.9853
2148,0.983
2150,0.9809
2152,0.9787
2154,0.9765
2156,0.9744
2158,0.9722
2160,0.97
2162,0.9679
2164,0.9657
2166,0.9636
2168,0.9615
2170,0.9594
2172,0.9572
2174,0.955
2176,0.9527
2178,0.9504
2180,0.9481
2182,0.9458
2184,0.9434
2186,0.9411
2188,0.9387
2190,0.9364
2192,0.9342
2194,0.932
2196,0.9299
2198,0.928
2200,0.9261
2202,0.9244
2204,0.9227
2206,0.9211
2208,0.9197
2210,0.9183
2212,0.9171
2214,0.9161
2216,0.9153
2218,0.9147
2220,0.9143
2222,0.9141
2224,0.9142
2226,0.9146
2228,0.9153
2230,0.9164
2232,0.9178
2234,0.9194
2236,0.9215
2238,0.9237
2240,0.9263
2242,0.9291
2244,0.9323
2246,0.9357
2248,0.9394
2250,0.9434
2252,0.9477
2254,0.9521
2256,0.9568
2258,0.9613
2260,0.9661
2262,0.9706
2264,0.975
2266,0.9793
2268,0.9833
2270,0.9871
2272,0.9904
2274,0.9935
2276,0.9962
2278,0.9986
2280,1.0008
2282,1.003
2284,1.0052
2286,1.0076
2288,1.0104
2290,1.0135
2292,1.0169
2294,1.0209
2296,1.0252
2298,1.03
2300,1.0348
2302,1.0398
2304,1.0445
2306,1.0492
2308,1.0531
2310,1.0566
2312,1.0593
2314,1.0613
2316,1.0631
2318,1.0649
2320,1.0671
2322,1.0697
2324,1.0728
2326,1.0762
2328,1.0797
2330,1.0833
2332,1.0868
2334,1.0903
2336,1.0939
2338,1.0975
2340,1.101
2342,1.1046
2344,1.1082
2346,1.1118
2348,1.1149
2350,1.1177
2352,1.1201
2354,1.1222
2356,1.124
2358,1.1258
2360,1.1276
2362,1.1298
2364,1.1321
2366,1.1345
2368,1.1373
2370,1.1403
2372,1.1438
2374,1.1475
2376,1.1516
2378,1.1557
2380,1.16
2382,1.1642
2384,1.1683
2386,1.1723
2388,1.176
2390,1.1797
2392,1.1832
2394,1.1866
2396,1.19
2398,1.1937
2400,1.1976
2402,1.2018
2404,1.2062
2406,1.2109
2408,1.2155
2410,1.2204
2412,1.2253
2414,1.2301
2416,1.2351
2418,1.2398
2420,1.2447
2422,1.2496
2424,1.2546
2426,1.2596
2428,1.2644
2430,1.2693
2432,1.2742
2434,1.2793
2436,1.2843
2438,1.2894
2440,1.2942
2442,1.2994
2444,1.3044
2446,1.3096
2448,1.3146
2450,1.3196
2452,1.3248
2454,1.3298
2456,1.3348
2458,1.3402
2460,1.3449
2462,1.3499
2464,1.3548
2466,1.3596
2468,1.3637
2470,1.3685
2472,1.3727
2474,1.3771
2476,1.3812
2478,1.3853
2480,1.3892
2482,1.3928
2484,1.3963
2486,1.3996
2488,1.4026
2490,1.4054
2492,1.4079
2494,1.4105
2496,1.4126
2498,1.4147
